Sensor Name: ttx_104
Initial Resistance: 90 ohms
Start Time: 2024-11-01 23:52:48
Time (s), Voltage (V)
-1730482187.63, 2.83
-1730482187.52, 2.82
-1730482187.42, 2.83
-1730482187.32, 2.82
-1730482187.22, 2.83
-1730482187.12, 2.84
-1730482187.02, 2.83
-1730482186.92, 2.85
-1730482186.82, 2.85
-1730482186.72, 2.84
-1730482186.62, 2.85
-1730482186.52, 2.85
-1730482186.41, 2.83
-1730482186.31, 2.83
-1730482186.21, 2.83
-1730482186.10, 2.83
-1730482186.00, 2.83
-1730482185.91, 2.82
-1730482185.81, 2.83
-1730482185.70, 2.82
-1730482185.60, 2.83
-1730482185.50, 2.83
-1730482185.40, 2.84
-1730482185.30, 2.84
-1730482185.19, 2.85
-1730482185.09, 2.85
-1730482184.99, 2.84
-1730482184.89, 2.84
-1730482184.79, 2.83
-1730482184.68, 2.83
-1730482184.59, 2.83
-1730482184.49, 2.82
-1730482184.39, 2.82
-1730482184.28, 2.83
-1730482184.18, 2.82
-1730482184.08, 2.83
-1730482183.98, 2.84
-1730482183.88, 2.83
-1730482183.78, 2.84
-1730482183.67, 2.85
-1730482183.57, 2.84
-1730482183.47, 2.84
-1730482183.37, 2.85
-1730482183.27, 2.84
-1730482183.17, 2.83
-1730482183.07, 2.83
-1730482182.97, 2.81
-1730482182.86, 2.83
-1730482182.76, 2.82
-1730482182.67, 2.83
-1730482182.56, 2.82
-1730482182.46, 2.83
-1730482182.36, 2.83
-1730482182.25, 2.84
-1730482182.16, 2.85
-1730482182.05, 2.86
-1730482181.95, 2.86
-1730482181.85, 2.85
-1730482181.75, 2.85
-1730482181.65, 2.86
-1730482181.55, 2.94
-1730482181.44, 2.96
-1730482181.35, 3.01
-1730482181.24, 3.01
-1730482181.14, 3.02
-1730482181.04, 3.01
-1730482180.94, 3.01
-1730482180.83, 3.03
-1730482180.73, 3.02
-1730482180.63, 3.02
-1730482180.53, 3.04
-1730482180.43, 3.04
-1730482180.32, 3.03
-1730482180.23, 3.04
-1730482180.13, 3.02
-1730482180.03, 3.01
-1730482179.92, 3.01
-1730482179.83, 2.99
-1730482179.72, 3.00
-1730482179.62, 3.00
-1730482179.52, 3.00
-1730482179.42, 3.00
-1730482179.32, 3.00
-1730482179.19, 3.01
-1730482179.12, 3.02
-1730482179.02, 3.02
-1730482178.91, 3.03
-1730482178.81, 3.03
-1730482178.71, 3.02
-1730482178.61, 3.02
-1730482178.50, 3.01
-1730482178.41, 3.01
-1730482178.30, 3.00
-1730482178.21, 3.01
-1730482178.10, 3.00
-1730482178.00, 3.00
-1730482177.90, 3.01
-1730482177.80, 3.00
-1730482177.70, 3.01
-1730482177.59, 3.02
-1730482177.50, 3.02
-1730482177.40, 3.02
-1730482177.29, 3.03
-1730482177.18, 3.02
-1730482177.09, 3.02
-1730482176.99, 3.02
-1730482176.88, 3.00
-1730482176.78, 3.01
-1730482176.68, 3.00
-1730482176.58, 2.99
-1730482176.48, 3.00
-1730482176.38, 2.99
-1730482176.28, 3.00
-1730482176.18, 3.00
-1730482176.08, 3.01
-1730482175.97, 3.01
-1730482175.87, 3.02
-1730482175.77, 3.02
-1730482175.67, 3.02
-1730482175.57, 3.02
-1730482175.47, 3.01
-1730482175.37, 3.01
-1730482175.26, 3.00
-1730482175.16, 3.00
-1730482175.06, 2.99
-1730482174.96, 2.99
-1730482174.86, 3.00
-1730482174.76, 2.99
-1730482174.66, 3.01
-1730482174.55, 3.00
-1730482174.45, 3.00
-1730482174.35, 3.02
-1730482174.25, 3.01
-1730482174.15, 3.01
-1730482174.05, 3.02
-1730482173.95, 3.02
-1730482173.84, 3.00
-1730482173.75, 3.01
-1730482173.64, 2.99
-1730482173.55, 2.99
-1730482173.44, 2.99
-1730482173.34, 2.98
-1730482173.24, 2.99
-1730482173.13, 2.99
-1730482173.04, 3.00
-1730482172.94, 2.99
-1730482172.84, 3.00
-1730482172.73, 3.01
-1730482172.63, 3.01
-1730482172.53, 3.01
-1730482172.43, 3.01
-1730482172.32, 3.01
-1730482172.22, 3.00
-1730482172.12, 2.99
-1730482172.02, 2.99
-1730482171.92, 2.99
-1730482171.82, 2.98
-1730482171.72, 2.99
-1730482171.62, 2.98
-1730482171.52, 3.00
-1730482171.42, 2.99
-1730482171.31, 2.99
-1730482171.21, 3.01
-1730482171.11, 3.00
-1730482171.01, 3.01
-1730482170.91, 3.01
-1730482170.81, 3.01
-1730482170.71, 2.99
-1730482170.61, 3.00
-1730482170.50, 2.99
-1730482170.40, 2.99
-1730482170.30, 2.99
-1730482170.20, 2.98
-1730482170.09, 2.99
-1730482169.99, 2.98
-1730482169.89, 3.00
-1730482169.79, 2.99
-1730482169.69, 3.00
-1730482169.59, 3.00
-1730482169.49, 3.01
-1730482169.39, 3.01
-1730482169.29, 3.01
-1730482169.18, 3.00
-1730482169.09, 3.00
-1730482168.98, 2.99
-1730482168.88, 2.99
-1730482168.77, 2.98
-1730482168.67, 2.99
-1730482168.58, 2.98
-1730482168.47, 2.98
-1730482168.38, 2.99
-1730482168.28, 2.99
-1730482168.17, 3.00
-1730482168.07, 3.01
-1730482167.97, 3.00
-1730482167.87, 3.01
-1730482167.76, 3.01
-1730482167.66, 3.00
-1730482167.56, 2.99
-1730482167.46, 3.00
-1730482167.36, 2.98
-1730482167.26, 2.99
-1730482167.16, 2.98
-1730482167.06, 2.98
-1730482166.95, 2.98
-1730482166.85, 2.98
-1730482166.75, 2.99
-1730482166.65, 2.99
-1730482166.55, 2.99
-1730482166.44, 3.00
-1730482166.34, 3.01
-1730482166.25, 3.00
-1730482166.15, 3.00
-1730482166.04, 3.00
-1730482165.94, 2.99
-1730482165.84, 2.98
-1730482165.74, 2.98
-1730482165.64, 2.98
-1730482165.53, 2.98
-1730482165.43, 2.98
-1730482165.33, 2.99
-1730482165.23, 2.99
-1730482165.13, 2.98
-1730482165.03, 3.00
-1730482164.93, 3.00
-1730482164.83, 3.00
-1730482164.73, 3.00
-1730482164.63, 3.01
-1730482164.52, 2.99
-1730482164.41, 2.99
-1730482164.32, 2.99
-1730482164.22, 2.97
-1730482164.12, 2.98
-1730482164.01, 2.97
-1730482163.91, 2.98
-1730482163.81, 2.97
-1730482163.71, 2.98
-1730482163.61, 2.98
-1730482163.51, 3.00
-1730482163.40, 2.99
-1730482163.31, 3.00
-1730482163.20, 3.00
-1730482163.10, 3.01
-1730482163.00, 3.00
-1730482162.90, 2.99
-1730482162.80, 2.99
-1730482162.69, 2.98
-1730482162.60, 2.97
-1730482162.49, 2.98
-1730482162.39, 2.97
-1730482162.29, 2.98
-1730482162.19, 2.98
-1730482162.09, 2.98
-1730482161.98, 2.99
-1730482161.89, 2.99
-1730482161.78, 2.99
-1730482161.69, 3.01
-1730482161.58, 2.99
-1730482161.48, 2.99
-1730482161.38, 3.00
-1730482161.28, 2.99
-1730482161.17, 2.97
-1730482161.07, 2.98
-1730482160.97, 2.98
-1730482160.88, 2.97
-1730482160.77, 2.98
-1730482160.67, 2.97
-1730482160.57, 2.98
-1730482160.47, 2.98
-1730482160.37, 2.99
-1730482160.27, 2.99
-1730482160.16, 3.00
-1730482160.07, 2.99
-1730482159.96, 3.00
-1730482159.86, 2.99
-1730482159.76, 2.98
-1730482159.66, 2.98
-1730482159.56, 2.97
-1730482159.45, 2.97
-1730482159.35, 2.97
-1730482159.25, 2.97
-1730482159.15, 2.98
-1730482159.05, 2.97
-1730482158.95, 2.98
-1730482158.85, 2.98
-1730482158.75, 2.98
-1730482158.64, 3.00
-1730482158.54, 3.00
-1730482158.44, 2.98
-1730482158.34, 2.99
-1730482158.23, 2.98
-1730482158.13, 2.97
-1730482158.04, 2.98
-1730482157.93, 2.97
-1730482157.83, 2.96
-1730482157.73, 2.98
-1730482157.63, 2.96
-1730482157.53, 2.98
-1730482157.43, 2.97
-1730482157.32, 2.98
-1730482157.23, 2.98
-1730482157.12, 3.00
-1730482157.02, 2.99
-1730482156.92, 3.00
-1730482156.82, 2.99
-1730482156.72, 2.98
-1730482156.62, 2.97
-1730482156.51, 2.97
-1730482156.41, 2.97
-1730482156.31, 2.97
-1730482156.21, 2.96
-1730482156.11, 2.97
-1730482156.00, 2.97
-1730482155.90, 2.97
-1730482155.81, 2.98
-1730482155.71, 2.97
-1730482155.60, 2.99
-1730482155.50, 2.99
-1730482155.40, 2.98
-1730482155.30, 2.99
-1730482155.20, 2.98
-1730482155.10, 2.97
-1730482155.00, 2.97
-1730482154.90, 2.97
-1730482154.79, 2.96
-1730482154.69, 2.97
-1730482154.59, 2.97
-1730482154.49, 2.96
-1730482154.39, 2.97
-1730482154.28, 2.96
-1730482154.18, 2.98
-1730482154.08, 2.98
-1730482153.98, 2.99
-1730482153.88, 2.99
-1730482153.78, 2.98
-1730482153.67, 2.98
-1730482153.57, 2.97
-1730482153.48, 2.96
-1730482153.37, 2.96
-1730482153.27, 2.96
-1730482153.17, 2.96
-1730482153.07, 2.96
-1730482152.97, 2.96
-1730482152.87, 2.96
-1730482152.76, 2.97
-1730482152.66, 2.98
-1730482152.56, 2.98
-1730482152.46, 2.99
-1730482152.36, 2.99
-1730482152.26, 2.98
-1730482152.16, 2.98
-1730482152.06, 2.97
-1730482151.95, 2.96
-1730482151.86, 2.96
-1730482151.75, 2.96
-1730482151.65, 2.96
-1730482151.55, 2.96
-1730482151.45, 2.96
-1730482151.34, 2.96
-1730482151.24, 2.97
-1730482151.15, 2.96
-1730482151.04, 2.98
-1730482150.94, 2.97
-1730482150.84, 2.99
-1730482150.74, 2.98
-1730482150.64, 2.98
-1730482150.54, 2.97
-1730482150.44, 2.97
-1730482150.33, 2.96
-1730482150.23, 2.96
-1730482150.13, 2.96
-1730482150.02, 2.96
-1730482149.93, 2.96
-1730482149.82, 2.96
-1730482149.72, 2.96
-1730482149.62, 2.98
-1730482149.52, 2.97
-1730482149.42, 2.98
-1730482149.32, 2.98
-1730482149.22, 2.98
-1730482149.11, 2.98
-1730482149.01, 2.97
-1730482148.92, 2.96
-1730482148.81, 2.96
-1730482148.71, 2.96
-1730482148.61, 2.95
-1730482148.51, 2.96
-1730482148.41, 2.96
-1730482148.31, 2.95
-1730482148.21, 2.97
-1730482148.10, 2.96
-1730482148.00, 2.98
-1730482147.90, 2.97
-1730482147.79, 2.98
-1730482147.70, 2.97
-1730482147.60, 2.98
-1730482147.49, 2.97
-1730482147.40, 2.96
-1730482147.29, 2.96
-1730482147.19, 2.96
-1730482147.09, 2.96
-1730482146.99, 2.95
-1730482146.88, 2.96
-1730482146.79, 2.96
-1730482146.68, 2.96
-1730482146.58, 2.97
-1730482146.48, 2.97
-1730482146.38, 2.99
-1730482146.28, 2.98
-1730482146.18, 2.97
-1730482146.08, 2.99
-1730482145.97, 2.97
-1730482145.87, 2.96
-1730482145.77, 2.96
-1730482145.67, 2.95
-1730482145.57, 2.95
-1730482145.47, 2.96
-1730482145.37, 2.95
-1730482145.27, 2.95
-1730482145.16, 2.97
-1730482145.06, 2.96
-1730482144.96, 2.98
-1730482144.86, 2.97
-1730482144.76, 2.98
-1730482144.66, 2.97
-1730482144.56, 2.98
-1730482144.45, 2.97
-1730482144.36, 2.97
-1730482144.25, 2.95
-1730482144.15, 2.96
-1730482144.05, 2.95
-1730482143.95, 2.95
-1730482143.85, 2.95
-1730482143.75, 2.96
-1730482143.64, 2.96
-1730482143.54, 2.96
-1730482143.44, 2.97
-1730482143.34, 2.97
-1730482143.24, 2.97
-1730482143.13, 2.98
-1730482143.03, 2.98
-1730482142.93, 2.96
-1730482142.83, 2.96
-1730482142.73, 2.96
-1730482142.63, 2.95
-1730482142.50, 2.95
-1730482142.43, 2.95
-1730482142.33, 2.95
-1730482142.22, 2.96
-1730482142.13, 2.96
-1730482142.02, 2.96
-1730482141.92, 2.98
-1730482141.82, 2.97
-1730482141.72, 2.98
-1730482141.62, 2.97
-1730482141.52, 2.97
-1730482141.42, 2.96
-1730482141.31, 2.96
-1730482141.21, 2.95
-1730482141.11, 2.96
-1730482141.01, 2.95
-1730482140.91, 2.95
-1730482140.81, 2.95
-1730482140.70, 2.96
-1730482140.60, 2.96
-1730482140.50, 2.97
-1730482140.40, 2.97
-1730482140.30, 2.98
-1730482140.20, 2.98
-1730482140.10, 2.98
-1730482140.00, 2.97
-1730482139.89, 2.96
-1730482139.79, 2.96
-1730482139.69, 2.96
-1730482139.59, 2.94
-1730482139.49, 2.96
-1730482139.39, 2.96
-1730482139.28, 2.94
-1730482139.19, 2.96
-1730482139.08, 2.96
-1730482138.98, 2.95
-1730482138.88, 2.97
-1730482138.78, 2.97
-1730482138.68, 2.98
-1730482138.58, 2.97
-1730482138.47, 2.97
-1730482138.37, 2.96
-1730482138.27, 2.95
-1730482138.17, 2.95
-1730482138.07, 2.95
-1730482137.97, 2.95
-1730482137.87, 2.95
-1730482137.77, 2.95
-1730482137.67, 2.96
-1730482137.57, 2.96
-1730482137.46, 2.97
-1730482137.36, 2.97
-1730482137.26, 2.98
-1730482137.15, 2.97
-1730482137.06, 2.97
-1730482136.95, 2.96
-1730482136.85, 2.96
-1730482136.75, 2.96
-1730482136.65, 2.95
-1730482136.55, 2.94
-1730482136.45, 2.96
-1730482136.35, 2.96
-1730482136.25, 2.95
-1730482136.14, 2.96
-1730482136.04, 2.96
-1730482135.94, 2.96
-1730482135.84, 2.97
-1730482135.74, 2.98
-1730482135.64, 2.97
-1730482135.54, 2.97
-1730482135.44, 2.96
-1730482135.33, 2.97
-1730482135.23, 2.94
-1730482135.13, 2.96
-1730482135.03, 2.94
-1730482134.93, 2.95
-1730482134.83, 2.95
-1730482134.73, 2.96
-1730482134.62, 2.96
-1730482134.52, 2.96
-1730482134.42, 2.97
-1730482134.32, 2.98
-1730482134.22, 2.97
-1730482134.12, 2.98
-1730482134.01, 2.97
-1730482133.92, 2.96
-1730482133.81, 2.95
-1730482133.71, 2.94
-1730482133.61, 2.96
-1730482133.51, 2.95
-1730482133.41, 2.94
-1730482133.30, 2.96
-1730482133.21, 2.95
-1730482133.11, 2.95
-1730482133.00, 2.96
-1730482132.88, 2.96
-1730482132.80, 2.96
-1730482132.70, 2.98
-1730482132.59, 2.97
-1730482132.49, 2.96
-1730482132.40, 2.96
-1730482132.30, 2.95
-1730482132.19, 2.95
-1730482132.09, 2.94
-1730482131.99, 2.95
-1730482131.89, 2.95
-1730482131.78, 2.95
-1730482131.68, 2.95
-1730482131.58, 2.96
-1730482131.48, 2.96
-1730482131.38, 2.97
-1730482131.28, 2.97
-1730482131.18, 2.97
-1730482131.08, 2.97
-1730482130.98, 2.96
-1730482130.87, 2.95
-1730482130.77, 2.95
-1730482130.67, 2.94
-1730482130.57, 2.95
-1730482130.47, 2.95
-1730482130.37, 2.94
-1730482130.27, 2.96
-1730482130.16, 2.95
-1730482130.06, 2.95
-1730482129.96, 2.97
-1730482129.86, 2.97
-1730482129.76, 2.96
-1730482129.66, 2.96
-1730482129.56, 2.97
-1730482129.46, 2.95
-1730482129.35, 2.96
-1730482129.25, 2.94
-1730482129.15, 2.95
-1730482129.05, 2.94
-1730482128.95, 2.95
-1730482128.85, 2.94
-1730482128.75, 2.95
-1730482128.64, 2.95
-1730482128.54, 2.96
-1730482128.44, 2.96
-1730482128.34, 2.97
-1730482128.24, 2.97
-1730482128.14, 2.97
-1730482128.04, 2.96
-1730482127.93, 2.95
-1730482127.83, 2.95
-1730482127.73, 2.95
-1730482127.63, 2.94
-1730482127.53, 2.95
-1730482127.43, 2.94
-1730482127.33, 2.95
-1730482127.22, 2.95
-1730482127.12, 2.95
-1730482127.02, 2.97
-1730482126.92, 2.97
-1730482126.82, 2.96
-1730482126.72, 2.97
-1730482126.62, 2.96
-1730482126.52, 2.94
-1730482126.41, 2.95
-1730482126.31, 2.95
-1730482126.21, 2.94
-1730482126.11, 2.95
-1730482126.01, 2.94
-1730482125.91, 2.95
-1730482125.81, 2.94
-1730482125.71, 2.96
-1730482125.60, 2.95
-1730482125.50, 2.97
-1730482125.40, 2.96
-1730482125.30, 2.96
-1730482125.20, 2.96
-1730482125.10, 2.95
-1730482124.99, 2.95
-1730482124.89, 2.95
-1730482124.79, 2.94
-1730482124.70, 2.94
-1730482124.59, 2.95
-1730482124.49, 2.94
-1730482124.39, 2.95
-1730482124.29, 2.95
-1730482124.19, 2.95
-1730482124.08, 2.96
-1730482123.98, 2.96
-1730482123.88, 2.96
-1730482123.78, 2.97
-1730482123.68, 2.96
-1730482123.58, 2.94
-1730482123.48, 2.95
-1730482123.38, 2.94
-1730482123.27, 2.93
-1730482123.17, 2.94
-1730482123.07, 2.94
-1730482122.97, 2.95
-1730482122.87, 2.95
-1730482122.77, 2.94
-1730482122.67, 2.96
-1730482122.56, 2.96
-1730482122.46, 2.96
-1730482122.36, 2.96
-1730482122.26, 2.96
-1730482122.16, 2.95
-1730482122.06, 2.95
-1730482121.96, 2.94
-1730482121.86, 2.94
-1730482121.75, 2.94
-1730482121.65, 2.94
-1730482121.55, 2.94
-1730482121.45, 2.94
-1730482121.35, 2.95
-1730482121.24, 2.95
-1730482121.14, 2.97
-1730482121.04, 2.96
-1730482120.94, 2.96
-1730482120.84, 2.96
-1730482120.73, 2.95
-1730482120.64, 2.94
-1730482120.54, 2.95
-1730482120.44, 2.94
-1730482120.33, 2.93
-1730482120.23, 2.94
-1730482120.13, 2.94
-1730482120.03, 2.94
-1730482119.93, 2.94
-1730482119.82, 2.94
-1730482119.73, 2.96
-1730482119.62, 2.96
-1730482119.52, 2.96
-1730482119.42, 2.96
-1730482119.32, 2.95
-1730482119.22, 2.94
-1730482119.12, 2.95
-1730482119.02, 2.93
-1730482118.91, 2.94
-1730482118.81, 2.94
-1730482118.71, 2.93
-1730482118.61, 2.94
-1730482118.50, 2.94
-1730482118.41, 2.95
-1730482118.31, 2.95
-1730482118.21, 2.96
-1730482118.10, 2.97
-1730482118.01, 2.96
-1730482117.90, 2.95
-1730482117.80, 2.95
-1730482117.69, 2.94
-1730482117.59, 2.93
-1730482117.49, 2.94
-1730482117.39, 2.93
-1730482117.29, 2.94
-1730482117.19, 2.95
-1730482117.09, 2.94
-1730482116.99, 2.94
-1730482116.88, 2.96
-1730482116.79, 2.95
-1730482116.69, 2.96
-1730482116.58, 2.95
-1730482116.48, 2.96
-1730482116.38, 2.94
-1730482116.27, 2.94
-1730482116.18, 2.94
-1730482116.07, 2.94
-1730482115.98, 2.93
-1730482115.87, 2.94
-1730482115.77, 2.94
-1730482115.67, 2.94
-1730482115.56, 2.94
-1730482115.47, 2.95
-1730482115.37, 2.95
-1730482115.26, 2.96
-1730482115.16, 2.96
-1730482115.07, 2.95
-1730482114.96, 2.94
-1730482114.86, 2.95
-1730482114.75, 2.93
-1730482114.65, 2.93
-1730482114.55, 2.94
-1730482114.46, 2.93
-1730482114.34, 2.93
-1730482114.25, 2.94
-1730482114.15, 2.94
-1730482114.05, 2.95
-1730482113.95, 2.96
-1730482113.84, 2.96
-1730482113.75, 2.95
-1730482113.64, 2.96
-1730482113.55, 2.94
-1730482113.44, 2.94
-1730482113.34, 2.93
-1730482113.24, 2.94
-1730482113.14, 2.93
-1730482113.03, 2.94
-1730482112.94, 2.93
-1730482112.84, 2.94
-1730482112.73, 2.94
-1730482112.63, 2.95
-1730482112.53, 2.95
-1730482112.43, 2.95
-1730482112.32, 2.96
-1730482112.22, 2.95
-1730482112.12, 2.95
-1730482112.03, 2.94
-1730482111.92, 2.93
-1730482111.82, 2.94
-1730482111.72, 2.93
-1730482111.62, 2.93
-1730482111.52, 2.93
-1730482111.41, 2.93
-1730482111.31, 2.95
-1730482111.21, 2.94
-1730482111.11, 2.94
-1730482111.01, 2.96
-1730482110.91, 2.95
-1730482110.80, 2.95
-1730482110.71, 2.95
-1730482110.61, 2.94
-1730482110.50, 2.93
-1730482110.39, 2.93
-1730482110.30, 2.92
-1730482110.19, 2.93
-1730482110.10, 2.93
-1730482109.99, 2.93
-1730482109.89, 2.94
-1730482109.79, 2.94
-1730482109.69, 2.95
-1730482109.59, 2.95
-1730482109.48, 2.95
-1730482109.39, 2.96
-1730482109.28, 2.94
-1730482109.18, 2.94
-1730482109.08, 2.93
-1730482108.98, 2.93
-1730482108.88, 2.92
-1730482108.78, 2.93
-1730482108.67, 2.93
-1730482108.58, 2.94
-1730482108.47, 2.94
-1730482108.37, 2.94
-1730482108.27, 2.95
-1730482108.17, 2.95
-1730482108.07, 2.94
-1730482107.97, 2.95
-1730482107.87, 2.95
-1730482107.77, 2.93
-1730482107.66, 2.94
-1730482107.56, 2.93
-1730482107.46, 2.92
-1730482107.36, 2.93
-1730482107.26, 2.93
-1730482107.15, 2.93
-1730482107.06, 2.93
-1730482106.95, 2.93
-1730482106.85, 2.95
-1730482106.75, 2.94
-1730482106.65, 2.96
-1730482106.55, 2.94
-1730482106.45, 2.95
-1730482106.34, 2.94
-1730482106.20, 2.93
-1730482106.14, 2.93
-1730482106.05, 2.93
-1730482105.94, 2.93
-1730482105.84, 2.93
-1730482105.74, 2.93
-1730482105.64, 2.93
-1730482105.53, 2.94
-1730482105.44, 2.94
-1730482105.33, 2.95
-1730482105.23, 2.95
-1730482105.13, 2.94
-1730482105.03, 2.95
-1730482104.93, 2.94
-1730482104.83, 2.92
-1730482104.72, 2.93
-1730482104.62, 2.93
-1730482104.52, 2.92
-1730482104.42, 2.93
-1730482104.32, 2.93
-1730482104.22, 2.92
-1730482104.12, 2.94
-1730482104.01, 2.93
-1730482103.91, 2.95
-1730482103.82, 2.94
-1730482103.71, 2.95
-1730482103.61, 2.94
-1730482103.51, 2.94
-1730482103.41, 2.93
-1730482103.31, 2.94
-1730482103.20, 2.92
-1730482103.10, 2.93
-1730482103.00, 2.93
-1730482102.90, 2.93
-1730482102.80, 2.93
-1730482102.70, 2.93
-1730482102.60, 2.94
-1730482102.49, 2.94
-1730482102.39, 2.95
-1730482102.29, 2.94
-1730482102.19, 2.94
-1730482102.09, 2.94
-1730482101.99, 2.93
-1730482101.88, 2.93
-1730482101.78, 2.93
-1730482101.69, 2.91
-1730482101.59, 2.93
-1730482101.49, 2.92
-1730482101.38, 2.92
-1730482101.28, 2.93
-1730482101.18, 2.94
-1730482101.07, 2.93
-1730482100.98, 2.95
-1730482100.88, 2.94
-1730482100.77, 2.94
-1730482100.67, 2.94
-1730482100.57, 2.93
-1730482100.47, 2.92
-1730482100.37, 2.92
-1730482100.27, 2.92
-1730482100.16, 2.92
-1730482100.06, 2.92
-1730482099.96, 2.93
-1730482099.86, 2.93
-1730482099.76, 2.93
-1730482099.66, 2.94
-1730482099.56, 2.94
-1730482099.46, 2.94
-1730482099.35, 2.94
-1730482099.25, 2.93
-1730482099.15, 2.93
-1730482099.05, 2.92
-1730482098.94, 2.92
-1730482098.84, 2.93
-1730482098.74, 2.92
-1730482098.64, 2.92
-1730482098.54, 2.93
-1730482098.44, 2.93
-1730482098.34, 2.93
-1730482098.24, 2.94
-1730482098.14, 2.94
-1730482098.04, 2.94
-1730482097.94, 2.94
-1730482097.83, 2.93
-1730482097.73, 2.93
-1730482097.63, 2.92
-1730482097.51, 2.92
-1730482097.43, 2.92
-1730482097.32, 2.91
-1730482097.23, 2.92
-1730482097.12, 2.92
-1730482097.02, 2.93
-1730482096.92, 2.93
-1730482096.82, 2.94
-1730482096.72, 2.94
-1730482096.62, 2.94
-1730482096.51, 2.94
-1730482096.42, 2.93
-1730482096.31, 2.93
-1730482096.21, 2.92
-1730482096.11, 2.92
-1730482096.01, 2.92
-1730482095.91, 2.92
-1730482095.81, 2.93
-1730482095.71, 2.92
-1730482095.61, 2.92
-1730482095.50, 2.94
-1730482095.40, 2.94
-1730482095.30, 2.93
-1730482095.20, 2.94
-1730482095.10, 2.94
-1730482095.00, 2.92
-1730482094.89, 2.93
-1730482094.80, 2.92
-1730482094.65, 2.91
-1730482094.59, 2.92
-1730482094.48, 2.91
-1730482094.37, 2.93
-1730482094.27, 2.92
-1730482094.18, 2.93
-1730482094.07, 2.93
-1730482093.98, 2.94
-1730482093.88, 2.94
-1730482093.78, 2.94
-1730482093.68, 2.93
-1730482093.58, 2.93
-1730482093.48, 2.92
-1730482093.37, 2.92
-1730482093.27, 2.91
-1730482093.17, 2.92
-1730482093.07, 2.91
-1730482092.97, 2.92
-1730482092.86, 2.92
-1730482092.76, 2.93
-1730482092.66, 2.93
-1730482092.56, 2.93
-1730482092.45, 2.94
-1730482092.36, 2.94
-1730482092.25, 2.93
-1730482092.16, 2.93
-1730482092.05, 2.92
-1730482091.95, 2.91
-1730482091.85, 2.91
-1730482091.75, 2.92
-1730482091.64, 2.91
-1730482091.55, 2.92
-1730482091.45, 2.92
-1730482091.35, 2.93
-1730482091.25, 2.93
-1730482091.14, 2.93
-1730482091.04, 2.94
-1730482090.94, 2.93
-1730482090.84, 2.93
-1730482090.74, 2.92
-1730482090.64, 2.92
-1730482090.54, 2.91
-1730482090.44, 3.00
-1730482090.33, 3.04
-1730482090.23, 3.10
-1730482090.13, 3.25
-1730482090.03, 2.71
-1730482089.93, 2.75
-1730482089.83, 2.96
-1730482089.73, 3.12
-1730482089.62, 2.85
-1730482089.52, 2.88
-1730482089.42, 2.74
-1730482089.32, 2.86
-1730482089.22, 2.86
-1730482089.11, 2.74
-1730482089.02, 2.92
-1730482088.92, 2.83
-1730482088.81, 2.91
-1730482088.71, 2.92
-1730482088.61, 2.96
-1730482088.51, 2.98
-1730482088.40, 3.23
-1730482088.29, 2.85
-1730482088.20, 3.05
-1730482088.10, 2.76
-1730482088.00, 2.82
-1730482087.90, 2.85
-1730482087.80, 2.91
-1730482087.70, 2.88
-1730482087.60, 2.77
-1730482087.50, 3.05
-1730482087.39, 3.01
-1730482087.29, 3.01
-1730482087.19, 2.97
-1730482087.09, 3.12
-1730482086.99, 3.20
-1730482086.89, 3.00
-1730482086.79, 2.88
-1730482086.69, 2.87
-1730482086.58, 2.80
-1730482086.48, 2.83
-1730482086.36, 2.93
-1730482086.27, 3.09
-1730482086.18, 2.91
-1730482086.08, 3.07
-1730482085.97, 2.91
-1730482085.88, 2.90
-1730482085.77, 2.94
-1730482085.67, 3.01
-1730482085.57, 3.17
-1730482085.47, 2.66
-1730482085.37, 3.01
-1730482085.27, 2.83
-1730482085.17, 2.80
-1730482085.07, 2.83
-1730482084.96, 2.87
-1730482084.86, 2.91
-1730482084.76, 2.88
-1730482084.66, 2.83
-1730482084.55, 2.92
-1730482084.46, 3.02
-1730482084.36, 2.94
-1730482084.25, 3.00
-1730482084.15, 5.00
-1730482084.05, 5.00
-1730482083.95, 4.64
-1730482083.85, 3.30
-1730482083.74, 0.15
-1730482083.65, 2.84
-1730482083.54, 2.96
-1730482083.44, 2.63
-1730482083.34, 0.00
-1730482083.24, 3.22
-1730482083.13, 2.90
-1730482083.03, 2.92
-1730482082.94, 2.88
-1730482082.84, 3.04
-1730482082.74, 2.96
-1730482082.63, 2.97
-1730482082.53, 2.96
-1730482082.43, 2.92
-1730482082.33, 2.89
-1730482082.23, 2.97
-1730482082.12, 2.96
-1730482082.02, 2.93
-1730482081.92, 2.89
-1730482081.82, 2.88
-1730482081.72, 2.91
-1730482081.62, 2.93
-1730482081.52, 2.95
-1730482081.41, 2.96
-1730482081.32, 2.96
-1730482081.21, 2.94
-1730482081.11, 2.91
-1730482081.01, 2.87
-1730482080.91, 2.86
-1730482080.81, 2.85
-1730482080.71, 2.85
-1730482080.60, 2.86
-1730482080.50, 2.88
-1730482080.40, 2.89
-1730482080.30, 2.91
-1730482080.20, 2.92
-1730482080.10, 2.95
-1730482079.99, 2.96
-1730482079.89, 2.95
-1730482079.80, 2.94
-1730482079.69, 2.90
-1730482079.59, 2.86
-1730482079.49, 2.86
-1730482079.39, 2.85
-1730482079.29, 2.85
-1730482079.19, 2.86
-1730482079.09, 2.88
-1730482078.98, 2.89
-1730482078.88, 2.92
-1730482078.78, 2.92
-1730482078.68, 2.95
-1730482078.58, 2.95
-1730482078.48, 2.95
-1730482078.38, 2.92
-1730482078.27, 2.90
-1730482078.17, 2.87
-1730482078.07, 2.86
-1730482077.97, 2.85
-1730482077.87, 2.86
-1730482077.77, 2.87
-1730482077.66, 2.88
-1730482077.56, 2.90
-1730482077.46, 2.92
-1730482077.36, 2.93
-1730482077.26, 2.95
-1730482077.16, 2.95
-1730482077.06, 2.93
-1730482076.96, 2.91
-1730482076.86, 2.88
-1730482076.75, 2.86
-1730482076.65, 2.86
-1730482076.55, 2.85
-1730482076.45, 2.86
-1730482076.35, 2.88
-1730482076.25, 2.89
-1730482076.15, 2.89
-1730482076.04, 2.91
-1730482075.94, 2.94
-1730482075.84, 2.94
-1730482075.74, 2.95
-1730482075.64, 2.92
-1730482075.54, 2.90
-1730482075.43, 2.87
-1730482075.33, 2.86
-1730482075.23, 2.85
-1730482075.13, 2.86
-1730482075.03, 2.87
-1730482074.93, 2.88
-1730482074.83, 2.89
-1730482074.73, 2.91
-1730482074.63, 2.92
-1730482074.52, 2.94
-1730482074.42, 2.94
-1730482074.32, 2.93
-1730482074.21, 2.91
-1730482074.12, 2.88
-1730482074.01, 2.86
-1730482073.91, 2.86
-1730482073.82, 2.85
-1730482073.71, 2.86
-1730482073.61, 2.88
-1730482073.51, 2.88
-1730482073.41, 2.90
-1730482073.31, 2.92
-1730482073.20, 2.92
-1730482073.11, 2.95
-1730482073.00, 2.94
-1730482072.90, 2.92
-1730482072.80, 2.89
-1730482072.70, 2.88
-1730482072.60, 2.85
-1730482072.50, 2.86
-1730482072.39, 2.86
-1730482072.29, 2.87
-1730482072.20, 2.88
-1730482072.09, 2.89
-1730482071.99, 2.90
-1730482071.89, 2.91
-1730482071.78, 2.94
-1730482071.69, 2.94
-1730482071.58, 2.93
-1730482071.48, 2.91
-1730482071.38, 2.88
-1730482071.28, 2.87
-1730482071.18, 2.85
-1730482071.08, 2.86
-1730482070.98, 2.86
-1730482070.87, 2.88
-1730482070.78, 2.88
-1730482070.67, 2.90
-1730482070.57, 2.91
-1730482070.47, 2.92
-1730482070.37, 2.95
-1730482070.26, 2.94
-1730482070.17, 2.92
-1730482070.06, 2.91
-1730482069.96, 2.88
-1730482069.86, 2.86
-1730482069.76, 2.86
-1730482069.65, 2.86
-1730482069.56, 2.86
-1730482069.45, 2.88
-1730482069.35, 2.89
-1730482069.25, 2.90
-1730482069.15, 2.92
-1730482069.05, 2.93
-1730482068.95, 2.94
-1730482068.85, 2.92
-1730482068.75, 2.91
-1730482068.65, 2.88
-1730482068.54, 2.87
-1730482068.44, 2.86
-1730482068.34, 2.86
-1730482068.24, 2.87
-1730482068.14, 2.87
-1730482068.03, 2.89
-1730482067.94, 2.89
-1730482067.83, 2.91
-1730482067.73, 2.93
-1730482067.63, 2.94
-1730482067.53, 2.94
-1730482067.43, 2.91
-1730482067.32, 2.89
-1730482067.23, 2.88
-1730482067.12, 2.85
-1730482067.03, 2.86
-1730482066.92, 2.87
-1730482066.82, 2.87
-1730482066.72, 2.88
-1730482066.62, 2.90
-1730482066.51, 2.90
-1730482066.41, 2.91
-1730482066.31, 2.94
-1730482066.21, 2.93
-1730482066.11, 2.93
-1730482066.01, 2.90
-1730482065.91, 2.89
-1730482065.81, 2.87
-1730482065.70, 2.86
-1730482065.60, 2.86
-1730482065.50, 2.87
-1730482065.40, 2.87
-1730482065.30, 2.89
-1730482065.20, 2.90
-1730482065.10, 2.91
-1730482064.99, 2.93
-1730482064.90, 2.94
-1730482064.79, 2.93
-1730482064.69, 2.92
-1730482064.59, 2.89
-1730482064.49, 2.88
-1730482064.39, 2.86
-1730482064.27, 2.86
-1730482064.18, 2.87
-1730482064.08, 2.87
-1730482063.98, 2.87
-1730482063.88, 2.89
-1730482063.78, 2.91
-1730482063.68, 2.92
-1730482063.57, 2.93
-1730482063.47, 2.93
-1730482063.37, 2.92
-1730482063.28, 2.90
-1730482063.17, 2.88
-1730482063.07, 2.87
-1730482062.97, 2.86
-1730482062.87, 2.87
-1730482062.77, 2.86
-1730482062.58, 2.87
