Sensor Name: uyu
Initial Resistance: 90 ohms
Start Time: 2024-11-02 00:02:07
Time (s), Voltage (V)
-1730482187.61, 2.52
-1730482187.52, 2.52
-1730482187.41, 2.52
-1730482187.32, 2.51
-1730482187.21, 2.51
-1730482187.11, 2.50
-1730482187.01, 2.50
-1730482186.91, 2.50
-1730482186.81, 2.50
-1730482186.71, 2.50
-1730482186.61, 2.51
-1730482186.50, 2.51
-1730482186.40, 2.52
-1730482186.30, 2.52
-1730482186.19, 2.52
-1730482186.10, 2.52
-1730482186.00, 2.52
-1730482185.90, 2.51
-1730482185.80, 2.50
-1730482185.69, 2.50
-1730482185.59, 2.49
-1730482185.49, 2.51
-1730482185.39, 2.50
-1730482185.29, 2.49
-1730482185.18, 2.51
-1730482185.09, 2.51
-1730482184.99, 2.50
-1730482184.88, 2.52
-1730482184.78, 2.52
-1730482184.67, 2.50
-1730482184.57, 2.51
-1730482184.48, 2.50
-1730482184.38, 2.49
-1730482184.27, 2.50
-1730482184.17, 2.49
-1730482184.07, 2.50
-1730482183.97, 2.49
-1730482183.87, 2.50
-1730482183.76, 2.50
-1730482183.67, 2.51
-1730482183.56, 2.51
-1730482183.46, 2.51
-1730482183.36, 2.51
-1730482183.26, 2.50
-1730482183.16, 2.49
-1730482183.05, 2.49
-1730482182.95, 2.49
-1730482182.86, 2.49
-1730482182.75, 2.49
-1730482182.66, 2.48
-1730482182.55, 2.49
-1730482182.45, 2.49
-1730482182.34, 2.50
-1730482182.24, 2.50
-1730482182.14, 2.50
-1730482182.04, 2.51
-1730482181.94, 2.50
-1730482181.84, 2.49
-1730482181.74, 2.49
-1730482181.64, 2.49
-1730482181.54, 2.48
-1730482181.44, 2.48
-1730482181.31, 2.48
-1730482181.23, 2.48
-1730482181.13, 2.49
-1730482181.03, 2.49
-1730482180.93, 2.50
-1730482180.83, 2.50
-1730482180.73, 2.50
-1730482180.62, 2.50
-1730482180.53, 2.49
-1730482180.42, 2.49
-1730482180.32, 2.48
-1730482180.22, 2.48
-1730482180.12, 2.48
-1730482180.02, 2.48
-1730482179.92, 2.48
-1730482179.82, 2.48
-1730482179.72, 2.48
-1730482179.61, 2.59
-1730482179.51, 2.51
-1730482179.41, 2.51
-1730482179.31, 2.50
-1730482179.21, 2.49
-1730482179.10, 2.49
-1730482179.00, 2.48
-1730482178.90, 2.47
-1730482178.80, 2.48
-1730482178.70, 2.47
-1730482178.60, 2.47
-1730482178.50, 2.48
-1730482178.40, 2.50
-1730482178.29, 2.48
-1730482178.19, 2.50
-1730482178.09, 2.51
-1730482177.99, 2.49
-1730482177.89, 3.46
-1730482177.78, 2.66
-1730482177.69, 2.52
-1730482177.59, 2.49
-1730482177.48, 2.49
-1730482177.38, 2.47
-1730482177.28, 2.48
-1730482177.18, 2.48
-1730482177.08, 2.48
-1730482176.98, 2.48
-1730482176.88, 2.48
-1730482176.77, 2.49
-1730482176.67, 2.49
-1730482176.57, 2.49
-1730482176.47, 2.49
-1730482176.37, 2.48
-1730482176.27, 2.48
-1730482176.17, 2.47
-1730482176.06, 2.47
-1730482175.96, 2.47
-1730482175.86, 2.47
-1730482175.76, 2.47
-1730482175.66, 2.48
-1730482175.55, 2.48
-1730482175.46, 2.47
-1730482175.36, 2.49
-1730482175.25, 2.49
-1730482175.15, 2.47
-1730482175.05, 2.47
-1730482174.95, 2.47
-1730482174.85, 2.46
-1730482174.75, 2.47
-1730482174.65, 2.46
-1730482174.54, 2.47
-1730482174.45, 2.46
-1730482174.34, 2.47
-1730482174.24, 2.46
-1730482174.14, 2.48
-1730482174.04, 2.47
-1730482173.93, 2.48
-1730482173.84, 2.48
-1730482173.73, 2.48
-1730482173.63, 2.47
-1730482173.53, 2.46
-1730482173.43, 2.46
-1730482173.32, 2.46
-1730482173.23, 2.46
-1730482173.12, 2.46
-1730482173.02, 2.46
-1730482172.92, 2.47
-1730482172.82, 2.46
-1730482172.72, 2.47
-1730482172.62, 2.48
-1730482172.52, 2.48
-1730482172.42, 2.47
-1730482172.32, 2.47
-1730482172.22, 2.47
-1730482172.11, 2.46
-1730482172.01, 2.45
-1730482171.91, 2.45
-1730482171.79, 2.45
-1730482171.71, 2.45
-1730482171.60, 2.46
-1730482171.50, 2.45
-1730482171.40, 2.47
-1730482171.30, 2.46
-1730482171.20, 2.47
-1730482171.10, 2.47
-1730482170.99, 2.47
-1730482170.89, 2.50
-1730482170.79, 2.50
-1730482170.69, 2.45
-1730482170.59, 2.45
-1730482170.49, 2.44
-1730482170.39, 2.44
-1730482170.29, 2.44
-1730482170.19, 2.45
-1730482170.09, 2.45
-1730482169.98, 2.46
-1730482169.89, 2.46
-1730482169.78, 2.47
-1730482169.67, 2.46
-1730482169.58, 2.45
-1730482169.48, 2.46
-1730482169.38, 2.45
-1730482169.27, 2.43
-1730482169.17, 2.44
-1730482169.07, 2.44
-1730482168.97, 2.44
-1730482168.87, 2.44
-1730482168.77, 2.44
-1730482168.67, 2.45
-1730482168.56, 2.46
-1730482168.46, 2.46
-1730482168.36, 2.46
-1730482168.26, 2.47
-1730482168.16, 2.45
-1730482168.05, 2.45
-1730482167.96, 2.44
-1730482167.85, 2.44
-1730482167.75, 2.43
-1730482167.65, 2.44
-1730482167.55, 2.44
-1730482167.45, 2.44
-1730482167.35, 2.44
-1730482167.24, 2.45
-1730482167.14, 2.46
-1730482167.04, 2.46
-1730482166.94, 2.48
-1730482166.84, 2.58
-1730482166.74, 2.65
-1730482166.64, 2.70
-1730482166.54, 2.70
-1730482166.43, 2.69
-1730482166.33, 2.71
-1730482166.23, 2.71
-1730482166.13, 2.70
-1730482166.03, 2.72
-1730482165.93, 2.73
-1730482165.83, 2.73
-1730482165.73, 2.73
-1730482165.63, 2.73
-1730482165.53, 2.72
-1730482165.43, 2.72
-1730482165.32, 2.72
-1730482165.22, 2.70
-1730482165.12, 2.71
-1730482165.01, 2.70
-1730482164.91, 2.71
-1730482164.82, 2.70
-1730482164.71, 2.72
-1730482164.62, 2.71
-1730482164.51, 2.72
-1730482164.41, 2.73
-1730482164.31, 2.74
-1730482164.21, 2.74
-1730482164.10, 2.74
-1730482164.01, 2.73
-1730482163.90, 2.72
-1730482163.80, 2.71
-1730482163.70, 2.72
-1730482163.60, 2.71
-1730482163.50, 2.72
-1730482163.40, 2.72
-1730482163.29, 2.72
-1730482163.19, 2.73
-1730482163.09, 2.74
-1730482162.99, 2.74
-1730482162.89, 2.75
-1730482162.79, 2.75
-1730482162.68, 2.74
-1730482162.59, 2.74
-1730482162.48, 2.73
-1730482162.38, 2.73
-1730482162.28, 2.73
-1730482162.15, 2.73
-1730482162.08, 2.73
-1730482161.98, 2.74
-1730482161.87, 2.73
-1730482161.77, 2.75
-1730482161.67, 2.75
-1730482161.57, 2.76
-1730482161.47, 2.75
-1730482161.37, 2.75
-1730482161.26, 2.74
-1730482161.17, 2.74
-1730482161.06, 2.74
-1730482160.96, 2.74
-1730482160.86, 2.73
-1730482160.76, 2.74
-1730482160.66, 2.74
-1730482160.55, 2.75
-1730482160.46, 2.75
-1730482160.35, 2.76
-1730482160.25, 2.76
-1730482160.15, 2.76
-1730482160.05, 2.77
-1730482159.95, 2.76
-1730482159.85, 2.75
-1730482159.75, 2.75
-1730482159.65, 2.75
-1730482159.55, 2.74
-1730482159.45, 2.74
-1730482159.34, 2.74
-1730482159.24, 2.75
-1730482159.13, 2.75
-1730482159.04, 2.76
-1730482158.93, 2.76
-1730482158.84, 2.77
-1730482158.74, 2.76
-1730482158.64, 2.76
-1730482158.53, 2.75
-1730482158.43, 2.76
-1730482158.33, 2.74
-1730482158.23, 2.75
-1730482158.13, 2.75
-1730482158.02, 2.75
-1730482157.93, 2.75
-1730482157.82, 2.76
-1730482157.72, 2.76
-1730482157.62, 2.77
-1730482157.52, 2.77
-1730482157.42, 2.78
-1730482157.31, 2.77
-1730482157.22, 2.76
-1730482157.11, 2.76
-1730482157.01, 2.75
-1730482156.91, 2.75
-1730482156.81, 2.76
-1730482156.70, 2.75
-1730482156.60, 2.75
-1730482156.50, 2.77
-1730482156.40, 2.77
-1730482156.30, 2.76
-1730482156.20, 2.77
-1730482156.10, 2.78
-1730482156.00, 2.76
-1730482155.90, 2.77
-1730482155.79, 2.75
-1730482155.69, 2.76
-1730482155.59, 2.75
-1730482155.49, 2.76
-1730482155.39, 2.75
-1730482155.29, 2.76
-1730482155.19, 2.76
-1730482155.08, 2.77
-1730482154.98, 2.77
-1730482154.88, 2.78
-1730482154.78, 2.78
-1730482154.68, 2.78
-1730482154.58, 2.77
-1730482154.47, 2.77
-1730482154.37, 2.76
-1730482154.27, 2.77
-1730482154.17, 2.76
-1730482154.08, 2.76
-1730482153.97, 2.76
-1730482153.87, 2.76
-1730482153.77, 2.77
-1730482153.67, 2.78
-1730482153.56, 2.78
-1730482153.46, 2.78
-1730482153.36, 2.79
-1730482153.26, 2.78
-1730482153.16, 2.76
-1730482153.06, 2.76
-1730482152.95, 2.76
-1730482152.85, 2.75
-1730482152.76, 2.77
-1730482152.65, 2.76
-1730482152.55, 2.77
-1730482152.45, 2.77
-1730482152.35, 2.78
-1730482152.25, 2.78
-1730482152.15, 2.79
-1730482152.04, 2.79
-1730482151.94, 2.78
-1730482151.84, 2.77
-1730482151.74, 2.77
-1730482151.64, 2.76
-1730482151.54, 2.77
-1730482151.44, 2.76
-1730482151.34, 2.77
-1730482151.23, 2.77
-1730482151.13, 2.77
-1730482151.03, 2.78
-1730482150.93, 2.78
-1730482150.83, 2.79
-1730482150.73, 2.79
-1730482150.63, 2.78
-1730482150.52, 2.78
-1730482150.42, 2.78
-1730482150.32, 2.77
-1730482150.22, 2.77
-1730482150.12, 2.77
-1730482150.02, 2.76
-1730482149.91, 2.77
-1730482149.81, 2.78
-1730482149.71, 2.78
-1730482149.61, 2.78
-1730482149.51, 2.79
-1730482149.41, 2.79
-1730482149.30, 2.80
-1730482149.20, 2.78
-1730482149.11, 2.79
-1730482149.01, 2.77
-1730482148.90, 2.77
-1730482148.81, 2.77
-1730482148.70, 2.77
-1730482148.60, 2.77
-1730482148.50, 2.78
-1730482148.40, 2.78
-1730482148.30, 2.79
-1730482148.19, 2.79
-1730482148.09, 2.80
-1730482147.99, 2.79
-1730482147.89, 2.79
-1730482147.79, 2.79
-1730482147.69, 2.78
-1730482147.58, 2.77
-1730482147.49, 2.78
-1730482147.39, 2.77
-1730482147.28, 2.78
-1730482147.18, 2.79
-1730482147.08, 2.78
-1730482146.98, 2.78
-1730482146.87, 2.79
-1730482146.77, 2.80
-1730482146.67, 2.79
-1730482146.58, 2.80
-1730482146.47, 2.79
-1730482146.37, 2.79
-1730482146.27, 2.78
-1730482146.16, 2.77
-1730482146.06, 2.79
-1730482145.96, 2.78
-1730482145.86, 2.78
-1730482145.76, 2.78
-1730482145.66, 2.79
-1730482145.56, 2.79
-1730482145.46, 2.80
-1730482145.35, 2.80
-1730482145.26, 2.80
-1730482145.15, 2.80
-1730482145.05, 2.79
-1730482144.95, 2.79
-1730482144.84, 2.79
-1730482144.74, 2.78
-1730482144.65, 2.78
-1730482144.55, 2.79
-1730482144.44, 2.78
-1730482144.34, 2.79
-1730482144.24, 2.80
-1730482144.14, 2.79
-1730482144.04, 2.80
-1730482143.94, 2.81
-1730482143.84, 2.80
-1730482143.73, 2.79
-1730482143.63, 2.79
-1730482143.53, 2.79
-1730482143.43, 2.78
-1730482143.33, 2.79
-1730482143.22, 2.78
-1730482143.13, 2.79
-1730482143.03, 2.79
-1730482142.92, 2.79
-1730482142.82, 2.80
-1730482142.72, 2.80
-1730482142.62, 2.81
-1730482142.52, 2.80
-1730482142.42, 2.80
-1730482142.31, 2.79
-1730482142.21, 2.79
-1730482142.11, 2.78
-1730482142.01, 2.79
-1730482141.91, 2.78
-1730482141.80, 2.79
-1730482141.71, 2.79
-1730482141.60, 2.80
-1730482141.50, 2.80
-1730482141.40, 2.80
-1730482141.30, 2.82
-1730482141.20, 2.81
-1730482141.10, 2.80
-1730482141.00, 2.81
-1730482140.89, 2.80
-1730482140.79, 2.78
-1730482140.69, 2.79
-1730482140.59, 2.79
-1730482140.49, 2.78
-1730482140.39, 2.79
-1730482140.28, 2.80
-1730482140.19, 2.79
-1730482140.08, 2.81
-1730482139.98, 2.81
-1730482139.88, 2.81
-1730482139.78, 2.80
-1730482139.68, 2.80
-1730482139.58, 2.80
-1730482139.47, 2.79
-1730482139.37, 2.79
-1730482139.27, 2.79
-1730482139.17, 2.79
-1730482139.07, 2.79
-1730482138.97, 2.79
-1730482138.87, 2.80
-1730482138.77, 2.80
-1730482138.67, 2.81
-1730482138.56, 2.81
-1730482138.46, 2.81
-1730482138.36, 2.82
-1730482138.26, 2.80
-1730482138.16, 2.80
-1730482138.05, 2.80
-1730482137.96, 2.79
-1730482137.85, 2.79
-1730482137.75, 2.80
-1730482137.65, 2.79
-1730482137.55, 2.79
-1730482137.45, 2.81
-1730482137.35, 2.81
-1730482137.25, 2.81
-1730482137.14, 2.82
-1730482137.04, 2.82
-1730482136.95, 2.80
-1730482136.84, 2.80
-1730482136.74, 2.79
-1730482136.64, 2.79
-1730482136.53, 2.79
-1730482136.43, 2.80
-1730482136.34, 2.79
-1730482136.24, 2.80
-1730482136.13, 2.80
-1730482136.03, 2.81
-1730482135.93, 2.81
-1730482135.82, 2.82
-1730482135.73, 2.81
-1730482135.62, 2.81
-1730482135.52, 2.80
-1730482135.42, 2.80
-1730482135.32, 2.80
-1730482135.22, 2.79
-1730482135.12, 2.80
-1730482135.02, 2.80
-1730482134.91, 2.79
-1730482134.82, 2.80
-1730482134.72, 2.81
-1730482134.62, 2.80
-1730482134.51, 2.81
-1730482134.41, 2.82
-1730482134.30, 2.82
-1730482134.21, 2.80
-1730482134.11, 2.81
-1730482134.01, 2.80
-1730482133.90, 2.79
-1730482133.79, 2.80
-1730482133.69, 2.79
-1730482133.60, 2.80
-1730482133.49, 2.80
-1730482133.40, 2.81
-1730482133.29, 2.80
-1730482133.19, 2.82
-1730482133.09, 2.82
-1730482132.99, 2.82
-1730482132.89, 2.81
-1730482132.79, 2.81
-1730482132.69, 2.80
-1730482132.59, 2.80
-1730482132.49, 2.80
-1730482132.38, 2.80
-1730482132.29, 2.80
-1730482132.18, 2.80
-1730482132.08, 2.81
-1730482131.98, 2.81
-1730482131.87, 2.81
-1730482131.77, 2.82
-1730482131.68, 2.81
-1730482131.57, 2.82
-1730482131.47, 2.81
-1730482131.37, 2.80
-1730482131.27, 2.80
-1730482131.16, 2.80
-1730482131.06, 2.80
-1730482130.97, 2.79
-1730482130.86, 2.81
-1730482130.76, 2.81
-1730482130.65, 2.81
-1730482130.56, 2.81
-1730482130.46, 2.82
-1730482130.35, 2.83
-1730482130.26, 2.81
-1730482130.15, 2.82
-1730482130.05, 2.80
-1730482129.95, 2.81
-1730482129.85, 2.80
-1730482129.75, 2.80
-1730482129.65, 2.80
-1730482129.54, 2.80
-1730482129.44, 2.80
-1730482129.35, 2.81
-1730482129.24, 2.81
-1730482129.14, 2.82
-1730482129.04, 2.82
-1730482128.94, 2.81
-1730482128.84, 2.82
-1730482128.73, 2.81
-1730482128.63, 2.80
-1730482128.53, 2.80
-1730482128.43, 2.79
-1730482128.33, 2.79
-1730482128.23, 2.80
-1730482128.13, 2.80
-1730482128.03, 2.80
-1730482127.93, 2.81
-1730482127.82, 2.82
-1730482127.72, 2.81
-1730482127.62, 2.83
-1730482127.52, 2.82
-1730482127.42, 2.81
-1730482127.31, 2.81
-1730482127.21, 2.79
-1730482127.11, 2.80
-1730482127.01, 2.79
-1730482126.91, 2.80
-1730482126.81, 2.80
-1730482126.71, 2.81
-1730482126.60, 2.81
-1730482126.50, 2.81
-1730482126.41, 2.82
-1730482126.30, 5.00
-1730482126.19, 5.00
-1730482126.10, 4.73
-1730482125.99, 0.00
-1730482125.90, 0.00
-1730482125.80, 0.00
-1730482125.70, 0.00
-1730482125.58, 0.00
-1730482125.49, 0.00
-1730482125.39, 0.00
-1730482125.29, 0.00
-1730482125.18, 0.00
-1730482125.08, 2.47
-1730482124.98, 2.69
-1730482124.89, 2.74
-1730482124.78, 2.74
-1730482124.68, 2.76
-1730482124.57, 2.76
-1730482124.47, 2.75
-1730482124.38, 2.77
-1730482124.27, 2.76
-1730482124.17, 2.77
-1730482124.07, 2.77
-1730482123.97, 2.78
-1730482123.87, 2.78
-1730482123.77, 2.79
-1730482123.67, 2.80
-1730482123.56, 2.79
-1730482123.46, 2.80
-1730482123.36, 2.80
-1730482123.26, 2.79
-1730482123.16, 2.79
-1730482123.06, 2.78
-1730482122.96, 2.78
-1730482122.85, 2.79
-1730482122.75, 2.78
-1730482122.66, 2.80
-1730482122.55, 2.79
-1730482122.46, 2.79
-1730482122.34, 2.81
-1730482122.24, 2.81
-1730482122.14, 2.80
-1730482122.05, 2.81
-1730482121.94, 2.81
-1730482121.84, 2.79
-1730482121.75, 2.79
-1730482121.64, 2.79
-1730482121.54, 2.78
-1730482121.44, 2.79
-1730482121.33, 2.79
-1730482121.24, 2.79
-1730482121.13, 2.80
-1730482121.03, 2.80
-1730482120.93, 2.80
-1730482120.83, 2.81
-1730482120.72, 2.81
-1730482120.63, 2.80
-1730482120.53, 2.79
-1730482120.42, 2.79
-1730482120.32, 2.79
-1730482120.22, 2.79
-1730482120.12, 2.79
-1730482120.01, 2.79
-1730482119.92, 2.80
-1730482119.82, 2.80
-1730482119.72, 2.80
-1730482119.61, 2.81
-1730482119.51, 2.81
-1730482119.41, 2.81
-1730482119.30, 2.81
-1730482119.21, 2.80
-1730482119.10, 2.80
-1730482119.00, 2.80
-1730482118.90, 2.78
-1730482118.80, 2.79
-1730482118.70, 2.80
-1730482118.60, 2.79
-1730482118.49, 2.79
-1730482118.40, 2.80
-1730482118.29, 2.80
-1730482118.19, 2.81
-1730482118.08, 2.82
-1730482117.99, 2.80
-1730482117.89, 2.81
-1730482117.79, 2.80
-1730482117.69, 2.79
-1730482117.55, 2.79
-1730482117.49, 2.78
-1730482117.38, 2.79
-1730482117.28, 2.79
-1730482117.18, 2.79
-1730482117.08, 2.80
-1730482116.98, 2.80
-1730482116.87, 2.81
-1730482116.77, 2.81
-1730482116.68, 2.81
-1730482116.58, 2.81
-1730482116.47, 2.80
-1730482116.36, 2.80
-1730482116.26, 2.79
-1730482116.17, 2.79
-1730482116.07, 2.79
-1730482115.96, 2.78
-1730482115.86, 2.80
-1730482115.77, 2.80
-1730482115.66, 2.79
-1730482115.56, 2.81
-1730482115.46, 2.81
-1730482115.35, 2.80
-1730482115.25, 2.81
-1730482115.15, 2.81
-1730482115.06, 2.79
-1730482114.96, 2.79
-1730482114.85, 2.79
-1730482114.75, 2.78
-1730482114.65, 2.80
-1730482114.54, 2.79
-1730482114.45, 2.80
-1730482114.34, 2.79
-1730482114.24, 2.80
-1730482114.14, 2.81
-1730482114.04, 2.82
-1730482113.94, 2.81
-1730482113.84, 2.81
-1730482113.74, 2.80
-1730482113.64, 2.80
-1730482113.53, 2.79
-1730482113.43, 2.79
-1730482113.33, 2.79
-1730482113.23, 2.80
-1730482113.13, 2.79
-1730482113.03, 2.79
-1730482112.93, 2.81
-1730482112.83, 2.80
-1730482112.72, 2.80
-1730482112.62, 2.82
-1730482112.52, 2.81
-1730482112.41, 2.80
-1730482112.32, 2.80
-1730482112.22, 2.79
-1730482112.11, 2.78
-1730482112.01, 2.79
-1730482111.91, 2.79
-1730482111.81, 2.78
-1730482111.71, 2.80
-1730482111.61, 2.80
-1730482111.51, 2.81
-1730482111.40, 2.81
-1730482111.30, 2.81
-1730482111.20, 2.82
-1730482111.10, 2.80
-1730482111.00, 2.80
-1730482110.90, 2.79
-1730482110.80, 2.79
-1730482110.70, 2.78
-1730482110.60, 2.79
-1730482110.49, 2.79
-1730482110.39, 2.80
-1730482110.29, 2.82
-1730482110.19, 2.80
-1730482110.09, 2.81
-1730482109.98, 2.81
-1730482109.88, 2.81
-1730482109.78, 2.82
-1730482109.68, 2.81
-1730482109.58, 2.79
-1730482109.48, 2.80
-1730482109.38, 2.80
-1730482109.28, 2.78
-1730482109.18, 2.79
-1730482109.07, 2.79
-1730482108.98, 2.79
-1730482108.87, 2.80
-1730482108.77, 2.81
-1730482108.66, 2.81
-1730482108.57, 2.82
-1730482108.47, 2.82
-1730482108.37, 2.81
-1730482108.26, 2.81
-1730482108.16, 2.79
-1730482108.06, 2.79
-1730482107.96, 2.78
-1730482107.86, 2.79
-1730482107.75, 2.78
-1730482107.66, 2.79
-1730482107.56, 2.80
-1730482107.45, 2.80
-1730482107.35, 2.81
-1730482107.25, 2.81
-1730482107.15, 2.82
-1730482107.05, 2.81
-1730482106.94, 2.80
-1730482106.84, 2.80
-1730482106.74, 2.79
-1730482106.64, 2.79
-1730482106.54, 2.80
-1730482106.43, 2.79
-1730482106.34, 2.79
-1730482106.23, 2.80
-1730482106.13, 2.80
-1730482106.04, 2.81
-1730482105.93, 2.81
-1730482105.84, 2.82
-1730482105.73, 2.81
-1730482105.63, 2.81
-1730482105.53, 2.80
-1730482105.42, 2.79
-1730482105.32, 2.80
-1730482105.22, 2.79
-1730482105.12, 2.79
-1730482105.02, 2.79
-1730482104.92, 2.79
-1730482104.82, 2.80
-1730482104.72, 2.80
-1730482104.61, 2.81
-1730482104.51, 2.83
-1730482104.41, 2.82
-1730482104.31, 2.81
-1730482104.21, 2.81
-1730482104.11, 2.80
-1730482104.00, 2.80
-1730482103.91, 2.79
-1730482103.80, 2.79
-1730482103.70, 2.79
-1730482103.60, 2.79
-1730482103.50, 2.79
-1730482103.40, 2.81
-1730482103.30, 2.80
-1730482103.20, 2.81
-1730482103.10, 2.82
-1730482103.00, 2.82
-1730482102.89, 2.80
-1730482102.78, 2.80
-1730482102.69, 2.80
-1730482102.59, 2.79
-1730482102.49, 2.79
-1730482102.39, 2.80
-1730482102.29, 2.79
-1730482102.18, 2.80
-1730482102.08, 2.80
-1730482101.98, 2.80
-1730482101.88, 2.81
-1730482101.78, 2.81
-1730482101.68, 2.82
-1730482101.58, 2.81
-1730482101.47, 2.81
-1730482101.37, 2.80
-1730482101.27, 2.79
-1730482101.17, 2.79
-1730482101.07, 2.79
-1730482100.97, 2.79
-1730482100.86, 2.79
-1730482100.77, 2.80
-1730482100.67, 2.80
-1730482100.56, 2.81
-1730482100.46, 2.81
-1730482100.36, 2.81
-1730482100.25, 2.82
-1730482100.16, 2.81
-1730482100.05, 2.80
-1730482099.96, 2.80
-1730482099.85, 2.80
-1730482099.75, 2.78
-1730482099.65, 2.79
-1730482099.55, 2.80
-1730482099.45, 2.80
-1730482099.35, 2.80
-1730482099.25, 2.80
-1730482099.14, 2.80
-1730482099.04, 2.82
-1730482098.94, 2.81
-1730482098.82, 2.81
-1730482098.74, 2.83
-1730482098.64, 2.79
-1730482098.53, 2.80
-1730482098.44, 2.79
-1730482098.34, 2.79
-1730482098.23, 3.02
-1730482098.13, 2.82
-1730482098.03, 2.84
-1730482097.93, 2.83
-1730482097.82, 2.82
-1730482097.72, 2.88
-1730482097.62, 2.87
-1730482097.52, 2.84
-1730482097.42, 2.83
-1730482097.32, 2.80
-1730482097.21, 2.79
-1730482097.11, 2.80
-1730482097.02, 2.79
-1730482096.91, 2.78
-1730482096.81, 2.80
-1730482096.71, 2.80
-1730482096.60, 2.79
-1730482096.51, 2.81
-1730482096.40, 2.82
-1730482096.31, 2.81
-1730482096.21, 2.82
-1730482096.10, 2.81
-1730482096.00, 2.80
-1730482095.90, 2.80
-1730482095.80, 2.79
-1730482095.69, 2.79
-1730482095.59, 2.79
-1730482095.50, 2.79
-1730482095.39, 2.80
-1730482095.29, 2.80
-1730482095.19, 2.80
-1730482095.09, 2.81
-1730482094.99, 2.81
-1730482094.89, 2.81
-1730482094.78, 2.81
-1730482094.68, 2.80
-1730482094.58, 2.80
-1730482094.48, 2.79
-1730482094.38, 2.79
-1730482094.28, 2.79
-1730482094.17, 2.79
-1730482094.08, 2.80
-1730482093.98, 2.80
-1730482093.88, 2.80
-1730482093.77, 2.81
-1730482093.66, 2.82
-1730482093.57, 2.81
-1730482093.46, 2.81
-1730482093.37, 2.80
-1730482093.26, 2.80
-1730482093.16, 2.79
-1730482093.06, 2.79
-1730482092.96, 2.79
-1730482092.86, 2.79
-1730482092.76, 2.80
-1730482092.66, 2.79
-1730482092.55, 2.81
-1730482092.46, 2.80
-1730482092.35, 2.81
-1730482092.25, 2.81
-1730482092.15, 2.81
-1730482092.05, 2.80
-1730482091.95, 2.80
-1730482091.85, 2.79
-1730482091.74, 2.80
-1730482091.64, 2.79
-1730482091.54, 2.79
-1730482091.44, 2.79
-1730482091.34, 2.79
-1730482091.24, 2.80
-1730482091.14, 2.80
-1730482091.03, 2.81
-1730482090.93, 2.81
-1730482090.83, 2.80
-1730482090.73, 2.81
-1730482090.63, 2.80
-1730482090.53, 2.79
-1730482090.43, 2.79
-1730482090.32, 2.79
-1730482090.22, 2.78
-1730482090.12, 2.79
-1730482090.02, 2.80
-1730482089.92, 2.80
-1730482089.82, 2.80
-1730482089.72, 2.82
-1730482089.62, 2.81
-1730482089.51, 2.81
-1730482089.41, 2.80
-1730482089.31, 2.80
-1730482089.20, 2.79
-1730482089.11, 2.78
-1730482089.01, 2.79
-1730482088.91, 2.79
-1730482088.80, 2.79
-1730482088.70, 2.79
-1730482088.60, 2.80
-1730482088.50, 2.80
-1730482088.40, 2.81
-1730482088.30, 2.81
-1730482088.19, 2.82
-1730482088.10, 2.80
-1730482087.99, 2.80
-1730482087.89, 2.79
-1730482087.79, 2.79
-1730482087.69, 2.79
-1730482087.59, 2.79
-1730482087.48, 2.79
-1730482087.39, 2.80
-1730482087.28, 2.80
-1730482087.19, 2.80
-1730482087.09, 2.81
-1730482086.98, 2.81
-1730482086.88, 2.81
-1730482086.78, 2.80
-1730482086.68, 2.81
-1730482086.57, 2.79
-1730482086.48, 2.79
-1730482086.38, 2.79
-1730482086.27, 2.78
-1730482086.17, 2.79
-1730482086.07, 2.78
-1730482085.96, 2.80
-1730482085.87, 2.80
-1730482085.77, 2.81
-1730482085.66, 2.81
-1730482085.56, 2.81
-1730482085.46, 2.81
-1730482085.36, 2.80
-1730482085.25, 2.80
-1730482085.15, 2.79
-1730482085.05, 2.79
-1730482084.96, 2.78
-1730482084.85, 2.79
-1730482084.75, 2.79
-1730482084.65, 2.79
-1730482084.55, 2.80
-1730482084.45, 2.80
-1730482084.35, 2.81
-1730482084.24, 2.82
-1730482084.14, 2.80
-1730482084.04, 2.80
-1730482083.94, 2.80
-1730482083.84, 2.78
-1730482083.73, 2.78
-1730482083.64, 2.79
-1730482083.53, 2.79
-1730482083.44, 2.78
-1730482083.33, 2.80
-1730482083.23, 2.79
-1730482083.13, 2.81
-1730482083.03, 2.81
-1730482082.92, 2.81
-1730482082.83, 2.80
-1730482082.73, 2.80
-1730482082.62, 2.79
-1730482082.53, 2.79
-1730482082.42, 3.58
-1730482082.32, 2.94
-1730482082.22, 2.70
-1730482082.11, 2.60
-1730482082.01, 2.64
-1730482081.92, 5.00
-1730482081.81, 4.69
-1730482081.71, 4.50
-1730482081.61, 4.38
-1730482081.51, 4.27
-1730482081.40, 4.16
-1730482081.30, 4.06
-1730482081.20, 3.96
-1730482081.10, 3.87
-1730482081.00, 3.80
-1730482080.90, 3.74
-1730482080.80, 3.71
-1730482080.70, 3.70
-1730482080.60, 3.69
-1730482080.49, 3.71
-1730482080.39, 3.69
-1730482080.29, 3.57
-1730482080.19, 3.48
-1730482080.09, 3.43
-1730482079.99, 3.39
-1730482079.89, 3.41
-1730482079.78, 3.51
-1730482079.69, 3.55
-1730482079.59, 3.48
-1730482079.48, 3.44
-1730482079.38, 3.40
-1730482079.28, 3.31
-1730482079.18, 3.20
-1730482079.07, 3.12
-1730482078.97, 3.05
-1730482078.87, 3.01
-1730482078.77, 2.97
-1730482078.67, 2.94
-1730482078.57, 2.91
-1730482078.47, 2.89
-1730482078.37, 2.87
-1730482078.26, 2.86
-1730482078.16, 2.85
-1730482078.06, 2.85
-1730482077.96, 2.83
-1730482077.86, 2.83
-1730482077.76, 2.83
-1730482077.66, 2.81
-1730482077.56, 2.82
-1730482077.45, 2.83
-1730482077.35, 2.82
-1730482077.25, 2.82
-1730482077.15, 2.82
-1730482077.04, 2.81
-1730482076.94, 2.81
-1730482076.84, 2.80
-1730482076.74, 2.81
-1730482076.64, 2.81
-1730482076.54, 2.81
-1730482076.44, 2.81
-1730482076.34, 2.81
-1730482076.24, 2.81
-1730482076.13, 2.81
-1730482076.03, 2.81
-1730482075.94, 2.81
-1730482075.83, 2.81
-1730482075.73, 2.81
-1730482075.63, 2.80
-1730482075.52, 2.80
-1730482075.42, 2.80
-1730482075.33, 2.80
-1730482075.23, 2.80
-1730482075.12, 2.80
-1730482075.02, 2.80
-1730482074.92, 2.80
-1730482074.82, 2.80
-1730482074.72, 2.80
-1730482074.62, 2.80
-1730482074.52, 2.80
-1730482074.42, 2.80
-1730482074.31, 2.80
-1730482074.21, 2.80
-1730482074.11, 2.80
-1730482074.01, 2.79
-1730482073.91, 2.80
-1730482073.81, 2.80
-1730482073.71, 2.80
-1730482073.60, 2.79
-1730482073.50, 2.81
-1730482073.40, 2.80
-1730482073.30, 2.80
-1730482073.20, 2.80
-1730482073.10, 2.80
-1730482073.00, 2.80
-1730482072.89, 2.80
-1730482072.79, 2.80
-1730482072.69, 2.80
-1730482072.59, 2.80
-1730482072.49, 2.79
-1730482072.38, 2.79
-1730482072.29, 2.80
-1730482072.19, 2.79
-1730482072.08, 2.79
-1730482071.98, 2.80
-1730482071.88, 2.80
-1730482071.77, 2.79
-1730482071.68, 2.78
-1730482071.58, 2.80
-1730482071.47, 2.79
-1730482071.38, 2.79
-1730482071.27, 2.80
-1730482071.17, 2.80
-1730482071.06, 2.79
-1730482070.96, 2.79
-1730482070.86, 2.79
-1730482070.76, 2.79
-1730482070.66, 2.80
-1730482070.56, 2.80
-1730482070.46, 2.80
-1730482070.36, 2.79
-1730482070.26, 2.79
-1730482070.15, 2.80
-1730482070.05, 2.79
-1730482069.95, 2.79
-1730482069.85, 2.79
-1730482069.75, 2.80
-1730482069.65, 2.80
-1730482069.55, 2.80
-1730482069.44, 2.80
-1730482069.34, 2.79
-1730482069.25, 2.79
-1730482069.14, 2.79
-1730482069.05, 2.79
-1730482068.94, 2.79
-1730482068.84, 2.79
-1730482068.74, 2.79
-1730482068.63, 2.79
-1730482068.53, 2.79
-1730482068.43, 2.79
-1730482068.34, 2.79
-1730482068.24, 2.79
-1730482068.13, 2.79
-1730482068.03, 2.78
-1730482067.93, 2.79
-1730482067.83, 2.80
-1730482067.73, 2.78
-1730482067.62, 2.79
-1730482067.53, 2.78
-1730482067.42, 2.79
-1730482067.32, 2.79
-1730482067.22, 2.79
-1730482067.12, 2.79
-1730482067.02, 2.79
-1730482066.91, 2.79
-1730482066.81, 2.79
-1730482066.71, 2.80
-1730482066.61, 2.79
-1730482066.51, 2.80
-1730482066.40, 2.79
-1730482066.30, 2.79
-1730482066.21, 2.79
-1730482066.11, 2.79
-1730482066.01, 2.79
-1730482065.90, 2.79
-1730482065.80, 2.78
-1730482065.69, 2.78
-1730482065.59, 2.79
-1730482065.49, 2.78
-1730482065.39, 2.79
-1730482065.29, 2.79
-1730482065.19, 2.79
-1730482065.09, 2.79
-1730482064.99, 2.80
-1730482064.89, 2.83
-1730482064.78, 2.85
-1730482064.68, 2.88
-1730482064.58, 2.92
-1730482064.48, 2.94
-1730482064.38, 2.97
-1730482064.27, 2.99
-1730482064.18, 3.01
-1730482064.08, 3.02
-1730482063.98, 3.03
-1730482063.87, 3.04
-1730482063.77, 3.04
-1730482063.67, 3.05
-1730482063.57, 3.05
-1730482063.47, 3.06
-1730482063.37, 3.06
-1730482063.26, 3.06
-1730482063.17, 3.07
-1730482063.06, 3.07
-1730482062.96, 3.07
-1730482062.86, 3.07
-1730482062.76, 3.07
-1730482062.65, 3.07
-1730482062.55, 3.08
-1730482062.45, 3.08
-1730482062.35, 3.08
-1730482062.26, 3.08
-1730482062.15, 3.08
-1730482062.05, 3.08
-1730482061.94, 3.08
-1730482061.84, 3.08
-1730482061.74, 3.08
-1730482061.64, 3.08
-1730482061.54, 3.08
-1730482061.44, 3.08
-1730482061.34, 3.07
-1730482061.24, 3.08
-1730482061.14, 3.09
-1730482061.03, 3.08
-1730482060.93, 3.09
-1730482060.84, 3.08
-1730482060.73, 3.09
-1730482060.63, 3.08
-1730482060.53, 3.09
-1730482060.43, 3.08
-1730482060.32, 3.09
-1730482060.22, 3.09
-1730482060.12, 3.09
-1730482060.02, 3.09
-1730482059.93, 3.09
-1730482059.82, 3.09
-1730482059.72, 3.09
-1730482059.62, 3.09
-1730482059.51, 3.09
-1730482059.41, 3.09
-1730482059.31, 3.09
-1730482059.21, 3.08
-1730482059.11, 3.09
-1730482059.01, 3.10
-1730482058.91, 3.09
-1730482058.81, 3.09
-1730482058.71, 3.09
-1730482058.61, 3.09
-1730482058.50, 3.09
-1730482058.40, 3.09
-1730482058.30, 3.10
-1730482058.20, 3.09
-1730482058.09, 3.10
-1730482057.99, 3.10
-1730482057.89, 3.10
-1730482057.79, 3.10
-1730482057.69, 3.09
-1730482057.59, 3.10
-1730482057.49, 3.09
-1730482057.39, 3.10
-1730482057.29, 3.10
-1730482057.18, 3.10
-1730482057.08, 3.10
-1730482056.98, 3.10
-1730482056.88, 3.10
-1730482056.78, 3.10
-1730482056.68, 3.11
-1730482056.58, 3.10
-1730482056.48, 3.10
-1730482056.38, 3.09
-1730482056.27, 3.09
-1730482056.17, 3.10
-1730482056.07, 3.10
-1730482055.96, 3.10
-1730482055.87, 3.10
-1730482055.77, 3.09
-1730482055.66, 3.10
-1730482055.56, 3.10
-1730482055.46, 3.10
-1730482055.36, 3.10
-1730482055.26, 3.11
-1730482055.16, 3.10
-1730482055.05, 3.10
-1730482054.96, 3.11
-1730482054.85, 3.10
-1730482054.75, 3.11
-1730482054.65, 3.10
-1730482054.55, 3.10
-1730482054.45, 3.11
-1730482054.35, 3.11
-1730482054.25, 3.11
-1730482054.14, 3.11
-1730482054.05, 3.11
-1730482053.94, 3.11
-1730482053.84, 3.10
-1730482053.74, 3.11
-1730482053.64, 3.10
-1730482053.54, 3.10
-1730482053.44, 3.10
-1730482053.34, 3.10
-1730482053.23, 3.11
-1730482053.13, 3.11
-1730482053.03, 3.10
-1730482052.93, 3.11
-1730482052.83, 3.11
-1730482052.73, 3.10
-1730482052.62, 3.10
-1730482052.52, 3.11
-1730482052.42, 3.10
-1730482052.32, 3.10
-1730482052.22, 3.10
-1730482052.12, 3.10
-1730482052.02, 3.10
-1730482051.91, 3.11
-1730482051.81, 3.10
-1730482051.71, 3.10
-1730482051.60, 3.11
-1730482051.51, 3.11
-1730482051.41, 3.11
-1730482051.30, 3.10
-1730482051.20, 3.11
-1730482051.10, 3.10
-1730482051.00, 3.11
-1730482050.90, 3.11
-1730482050.80, 3.11
-1730482050.70, 3.11
-1730482050.60, 3.11
-1730482050.50, 3.11
-1730482050.39, 3.11
-1730482050.30, 3.10
-1730482050.19, 3.11
-1730482050.09, 3.11
-1730482049.99, 3.11
-1730482049.88, 3.11
-1730482049.78, 3.10
-1730482049.69, 3.11
-1730482049.58, 3.11
-1730482049.48, 3.10
-1730482049.38, 3.10
-1730482049.28, 3.10
-1730482049.18, 3.10
-1730482049.07, 3.10
-1730482048.98, 3.10
-1730482048.87, 3.11
-1730482048.77, 3.11
-1730482048.67, 3.11
-1730482048.56, 3.10
-1730482048.47, 3.11
-1730482048.37, 3.11
-1730482048.27, 3.10
-1730482048.16, 3.11
-1730482048.06, 3.10
-1730482047.96, 3.11
-1730482047.86, 3.10
-1730482047.76, 3.11
-1730482047.66, 3.11
-1730482047.56, 3.10
-1730482047.45, 3.11
-1730482047.35, 3.11
-1730482047.26, 3.12
-1730482047.16, 3.11
-1730482047.05, 3.11
-1730482046.95, 3.10
-1730482046.85, 3.10
-1730482046.74, 3.10
-1730482046.65, 3.09
-1730482046.54, 3.10
-1730482046.44, 3.09
-1730482046.34, 3.09
-1730482046.24, 3.11
-1730482046.14, 3.11
-1730482046.04, 3.11
-1730482045.94, 3.11
-1730482045.84, 3.12
-1730482045.73, 3.11
-1730482045.64, 3.11
-1730482045.53, 3.11
-1730482045.43, 3.11
-1730482045.33, 3.10
-1730482045.22, 3.10
-1730482045.13, 3.10
-1730482045.03, 3.10
-1730482044.92, 3.10
-1730482044.82, 3.10
-1730482044.72, 3.10
-1730482044.62, 3.10
-1730482044.52, 3.10
-1730482044.42, 3.09
-1730482044.31, 3.10
-1730482044.21, 3.10
-1730482044.11, 3.10
-1730482044.01, 3.10
-1730482043.91, 3.10
-1730482043.81, 3.10
-1730482043.70, 3.10
-1730482043.61, 3.10
-1730482043.51, 3.09
-1730482043.40, 3.09
-1730482043.30, 3.10
-1730482043.20, 3.10
-1730482043.10, 3.09
-1730482043.00, 3.10
-1730482042.90, 3.09
-1730482042.80, 3.09
-1730482042.69, 3.09
-1730482042.59, 3.10
-1730482042.49, 3.09
-1730482042.39, 3.10
-1730482042.29, 3.10
-1730482042.18, 3.09
-1730482042.09, 3.10
-1730482041.98, 3.09
-1730482041.88, 3.09
-1730482041.78, 3.09
-1730482041.68, 3.10
-1730482041.58, 3.09
-1730482041.44, 3.10
-1730482041.37, 3.09
-1730482041.27, 3.10
-1730482041.17, 3.10
-1730482041.07, 3.10
-1730482040.97, 3.09
-1730482040.87, 3.10
-1730482040.77, 3.10
-1730482040.66, 3.09
-1730482040.57, 3.10
-1730482040.46, 3.09
-1730482040.36, 3.10
-1730482040.26, 3.10
-1730482040.16, 3.09
-1730482040.06, 3.09
-1730482039.96, 3.10
-1730482039.86, 3.09
-1730482039.76, 3.09
-1730482039.65, 3.09
-1730482039.55, 3.10
-1730482039.45, 3.09
-1730482039.35, 3.10
-1730482039.25, 3.10
-1730482039.15, 3.10
-1730482039.05, 3.10
-1730482038.94, 3.12
-1730482038.84, 3.10
-1730482038.74, 3.10
-1730482038.64, 3.09
-1730482038.54, 3.09
-1730482038.44, 3.09
-1730482038.33, 3.09
-1730482038.23, 3.09
-1730482038.13, 3.09
-1730482038.03, 3.09
-1730482037.92, 3.10
-1730482037.83, 3.10
-1730482037.73, 3.11
-1730482037.63, 3.11
-1730482037.52, 3.11
-1730482037.42, 3.11
-1730482037.32, 3.10
-1730482037.22, 3.09
-1730482037.11, 3.10
-1730482037.01, 3.09
-1730482036.92, 3.08
-1730482036.82, 3.09
-1730482036.71, 3.09
-1730482036.61, 3.08
-1730482036.51, 3.10
-1730482036.41, 3.11
-1730482036.31, 3.11
-1730482036.20, 3.11
-1730482036.10, 3.11
-1730482036.01, 3.09
-1730482035.90, 3.09
-1730482035.80, 3.09
-1730482035.70, 3.08
-1730482035.60, 3.09
-1730482035.50, 3.09
-1730482035.39, 3.09
-1730482035.29, 3.09
-1730482035.19, 3.11
-1730482035.08, 3.10
-1730482034.99, 3.11
-1730482034.89, 3.11
-1730482034.79, 3.11
-1730482034.69, 3.10
-1730482034.58, 3.10
-1730482034.49, 3.09
-1730482034.38, 3.09
-1730482034.28, 3.08
-1730482034.18, 3.08
-1730482034.08, 3.10
-1730482033.97, 3.09
-1730482033.88, 3.09
-1730482033.77, 3.11
-1730482033.67, 3.10
-1730482033.57, 3.10
-1730482033.47, 3.11
-1730482033.37, 3.10
-1730482033.27, 3.10
-1730482033.17, 3.09
-1730482033.06, 3.09
-1730482032.97, 3.08
-1730482032.86, 3.09
-1730482032.76, 3.08
-1730482032.66, 3.08
-1730482032.56, 3.10
-1730482032.46, 3.09
-1730482032.35, 3.11
-1730482032.26, 3.10
-1730482032.16, 3.11
-1730482032.05, 3.09
-1730482031.95, 3.11
-1730482031.84, 3.09
-1730482031.74, 3.09
-1730482031.64, 3.09
-1730482031.54, 3.09
-1730482031.44, 3.09
-1730482031.34, 3.09
-1730482031.24, 3.10
-1730482031.14, 3.10
-1730482031.04, 3.11
-1730482030.93, 3.11
-1730482030.84, 3.11
-1730482030.74, 3.11
-1730482030.63, 3.11
-1730482030.53, 3.09
-1730482030.43, 3.09
-1730482030.33, 3.10
-1730482030.22, 3.09
-1730482030.13, 3.09
-1730482030.02, 3.10
-1730482029.93, 3.09
-1730482029.83, 3.09
-1730482029.72, 3.11
-1730482029.62, 3.10
-1730482029.52, 3.11
-1730482029.41, 3.11
-1730482029.32, 3.10
-1730482029.21, 3.10
-1730482029.11, 3.09
-1730482029.01, 3.09
-1730482028.91, 3.08
-1730482028.81, 3.09
-1730482028.70, 3.09
-1730482028.60, 3.09
-1730482028.50, 3.10
-1730482028.41, 3.10
-1730482028.30, 3.11
-1730482028.20, 3.11
-1730482028.10, 3.11
-1730482028.00, 3.10
-1730482027.89, 3.11
-1730482027.80, 3.09
-1730482027.69, 3.08
-1730482027.60, 3.10
-1730482027.49, 3.08
-1730482027.39, 3.08
-1730482027.29, 3.09
-1730482027.19, 3.10
-1730482027.09, 3.09
-1730482026.99, 3.10
-1730482026.88, 3.11
-1730482026.78, 3.11
-1730482026.68, 3.11
-1730482026.58, 3.11
-1730482026.47, 3.08
-1730482026.37, 3.09
-1730482026.28, 3.08
-1730482026.17, 3.09
-1730482026.07, 3.09
-1730482025.97, 3.08
-1730482025.87, 3.09
-1730482025.77, 3.09
-1730482025.66, 3.10
-1730482025.57, 3.11
-1730482025.46, 3.11
-1730482025.36, 3.11
-1730482025.26, 3.10
-1730482025.16, 3.10
-1730482025.06, 3.09
-1730482024.96, 3.08
-1730482024.86, 3.09
-1730482024.76, 3.08
-1730482024.65, 3.09
-1730482024.56, 3.09
-1730482024.45, 3.09
-1730482024.35, 3.10
-1730482024.25, 3.11
-1730482024.15, 3.10
-1730482024.05, 3.10
-1730482023.95, 3.11
-1730482023.84, 3.10
-1730482023.74, 3.08
-1730482023.64, 3.09
-1730482023.54, 3.09
-1730482023.44, 3.08
-1730482023.33, 3.09
-1730482023.24, 3.08
-1730482023.14, 3.09
-1730482023.03, 3.09
-1730482022.93, 3.10
-1730482022.83, 3.11
-1730482022.72, 3.10
-1730482022.63, 3.11
-1730482022.53, 3.10
-1730482022.42, 3.09
-1730482022.33, 3.09
-1730482022.22, 3.08
-1730482022.12, 3.08
-1730482022.02, 3.09
-1730482021.92, 3.08
-1730482021.81, 3.09
-1730482021.71, 3.09
-1730482021.61, 3.10
-1730482021.52, 3.10
-1730482021.41, 3.10
-1730482021.31, 3.11
-1730482021.21, 3.11
-1730482021.10, 3.09
-1730482021.01, 3.09
-1730482020.91, 3.09
-1730482020.80, 3.08
-1730482020.70, 3.08
-1730482020.60, 3.09
-1730482020.50, 3.09
-1730482020.40, 3.08
-1730482020.30, 3.10
-1730482020.20, 3.10
-1730482020.09, 3.11
-1730482020.00, 3.11
-1730482019.89, 3.10
-1730482019.79, 3.10
-1730482019.69, 3.09
-1730482019.58, 3.09
-1730482019.48, 3.08
-1730482019.38, 3.08
-1730482019.28, 3.08
-1730482019.18, 3.08
-1730482019.08, 3.09
-1730482018.98, 3.09
-1730482018.88, 3.09
-1730482018.78, 3.11
-1730482018.68, 3.10
-1730482018.57, 3.11
-1730482018.47, 3.10
-1730482018.37, 3.10
-1730482018.27, 3.10
-1730482018.17, 3.08
-1730482018.06, 3.08
-1730482017.97, 3.09
-1730482017.86, 3.09
-1730482017.76, 3.08
-1730482017.66, 3.09
-1730482017.56, 3.10
-1730482017.46, 3.10
-1730482017.35, 3.13
-1730482017.25, 3.16
-1730482017.15, 3.12
-1730482017.05, 3.11
-1730482016.95, 3.10
-1730482016.85, 3.08
-1730482016.75, 3.08
-1730482016.65, 3.08
-1730482016.54, 3.09
-1730482016.45, 3.08
-1730482016.34, 3.09
-1730482016.24, 3.09
-1730482016.14, 3.10
-1730482016.04, 3.11
-1730482015.94, 3.12
-1730482015.84, 3.12
-1730482015.73, 3.11
-1730482015.63, 3.10
-1730482015.53, 3.08
-1730482015.43, 3.10
-1730482015.33, 3.08
-1730482015.23, 3.08
-1730482015.13, 3.08
-1730482015.02, 3.08
-1730482014.92, 3.10
-1730482014.83, 3.10
-1730482014.72, 3.10
-1730482014.62, 3.10
-1730482014.52, 3.10
-1730482014.42, 3.10
-1730482014.31, 3.09
-1730482014.22, 3.09
-1730482014.11, 3.09
-1730482014.01, 3.07
-1730482013.91, 3.09
-1730482013.81, 3.08
-1730482013.71, 3.08
-1730482013.60, 3.08
-1730482013.51, 3.08
-1730482013.41, 3.10
-1730482013.30, 3.09
-1730482013.20, 3.11
-1730482013.10, 3.10
-1730482013.00, 3.10
-1730482012.90, 3.09
-1730482012.79, 3.08
-1730482012.68, 3.08
-1730482012.59, 3.08
-1730482012.49, 3.08
-1730482012.39, 3.08
-1730482012.29, 3.22
-1730482012.19, 3.14
-1730482012.08, 3.30
-1730482011.99, 3.75
-1730482011.88, 3.70
-1730482011.78, 4.39
-1730482011.68, 4.89
-1730482011.57, 4.94
-1730482011.47, 4.67
-1730482011.38, 4.10
-1730482011.27, 1.96
-1730482011.17, 0.75
-1730482011.07, 0.38
-1730482010.97, 0.25
-1730482010.87, 0.19
-1730482010.77, 0.15
-1730482010.67, 0.13
-1730482010.56, 0.12
-1730482010.46, 0.11
-1730482010.36, 0.10
-1730482010.26, 0.09
-1730482010.16, 0.08
-1730482010.06, 0.07
-1730482009.95, 0.06
-1730482009.85, 0.05
-1730482009.75, 0.05
-1730482009.66, 0.05
-1730482009.55, 0.05
-1730482009.45, 0.04
-1730482009.35, 0.04
-1730482009.25, 0.04
-1730482009.14, 0.05
-1730482009.05, 0.04
-1730482008.95, 0.04
-1730482008.84, 0.04
-1730482008.74, 0.04
-1730482008.64, 0.03
-1730482008.54, 0.03
-1730482008.43, 0.03
-1730482008.34, 0.03
-1730482008.24, 0.03
-1730482008.14, 0.02
-1730482008.03, 0.03
-1730482007.93, 0.03
-1730482007.83, 0.03
-1730482007.73, 0.03
-1730482007.63, 0.03
-1730482007.52, 0.04
-1730482007.43, 0.03
-1730482007.33, 0.03
-1730482007.22, 0.03
-1730482007.12, 0.03
-1730482007.03, 0.02
-1730482006.92, 0.03
-1730482006.82, 0.02
-1730482006.71, 0.02
-1730482006.61, 0.05
-1730482006.52, 1.03
-1730482006.41, 1.32
-1730482006.31, 1.39
-1730482006.22, 1.64
-1730482006.12, 2.00
-1730482006.01, 2.25
-1730482005.91, 1.78
-1730482005.80, 1.60
-1730482005.70, 1.99
-1730482005.60, 2.20
-1730482005.51, 1.93
-1730482005.40, 1.45
-1730482005.30, 1.10
-1730482005.20, 0.03
-1730482005.09, 0.00
-1730482005.00, 0.18
-1730482004.89, 0.11
-1730482004.79, 0.09
-1730482004.69, 0.13
-1730482004.59, 0.05
-1730482004.49, 0.19
-1730482004.39, 0.00
-1730482004.28, 0.00
-1730482004.19, 0.00
-1730482004.09, 0.00
-1730482003.98, 0.00
-1730482003.88, 0.04
-1730482003.78, 0.00
-1730482003.68, 0.00
-1730482003.57, 0.20
-1730482003.48, 0.21
-1730482003.38, 0.16
-1730482003.28, 0.27
-1730482003.17, 0.29
-1730482003.07, 0.03
-1730482002.97, 0.06
-1730482002.86, 0.00
-1730482002.77, 0.00
-1730482002.67, 0.00
-1730482002.57, 0.00
-1730482002.46, 0.00
-1730482002.36, 0.00
-1730482002.26, 0.04
-1730482002.16, 0.00
-1730482002.06, 0.35
-1730482001.96, 0.18
-1730482001.86, 0.16
-1730482001.76, 0.43
-1730482001.65, 0.27
-1730482001.55, 0.00
-1730482001.45, 0.00
-1730482001.35, 0.06
-1730482001.25, 0.00
-1730482001.15, 0.00
-1730482001.04, 0.00
-1730482000.95, 0.10
-1730482000.84, 0.02
-1730482000.75, 0.03
-1730482000.64, 0.28
-1730482000.54, 0.21
-1730482000.44, 0.14
-1730482000.34, 0.07
-1730482000.23, 0.45
-1730482000.14, 0.02
-1730482000.04, 0.06
-1730481999.94, 0.00
-1730481999.83, 0.00
-1730481999.73, 0.00
-1730481999.63, 0.00
-1730481999.53, 0.00
-1730481999.42, 0.03
-1730481999.33, 0.01
-1730481999.22, 0.00
-1730481999.12, 0.04
-1730481999.02, 0.07
-1730481998.92, 0.15
-1730481998.82, 0.25
-1730481998.72, 0.19
-1730481998.62, 0.29
-1730481998.52, 0.11
-1730481998.41, 0.00
-1730481998.32, 0.00
-1730481998.21, 0.00
-1730481998.11, 0.00
-1730481998.01, 0.00
-1730481997.91, 0.00
-1730481997.81, 0.00
-1730481997.71, 0.00
-1730481997.61, 0.00
-1730481997.51, 0.13
-1730481997.40, 0.13
-1730481997.30, 0.29
-1730481997.20, 0.25
-1730481997.10, 0.24
-1730481996.99, 0.03
-1730481996.90, 0.03
-1730481996.80, 0.00
-1730481996.70, 0.00
-1730481996.59, 0.00
-1730481996.49, 0.10
-1730481996.39, 0.00
-1730481996.29, 0.13
-1730481996.19, 0.00
-1730481996.08, 0.25
-1730481995.99, 0.13
-1730481995.88, 0.05
-1730481995.78, 0.07
-1730481995.68, 0.15
-1730481995.58, 0.00
-1730481995.48, 0.00
-1730481995.38, 0.00
-1730481995.27, 0.00
-1730481995.17, 0.00
-1730481995.07, 0.00
-1730481994.97, 0.24
-1730481994.87, 0.00
-1730481994.77, 0.22
-1730481994.67, 0.00
-1730481994.57, 0.15
-1730481994.47, 0.12
-1730481994.36, 0.24
-1730481994.27, 0.19
-1730481994.16, 0.00
-1730481994.06, 0.05
-1730481993.96, 0.00
-1730481993.86, 0.00
-1730481993.76, 0.00
-1730481993.66, 0.00
-1730481993.55, 0.00
-1730481993.45, 0.00
-1730481993.36, 0.11
-1730481993.25, 0.18
-1730481993.15, 0.08
-1730481993.05, 0.05
-1730481992.94, 0.14
-1730481992.84, 0.32
-1730481992.75, 0.02
-1730481992.65, 0.00
-1730481992.54, 0.00
-1730481992.44, 0.00
-1730481992.34, 0.00
-1730481992.24, 0.00
-1730481992.14, 0.00
-1730481992.04, 0.00
-1730481991.93, 0.10
-1730481991.84, 0.00
-1730481991.74, 0.00
-1730481991.63, 0.15
-1730481991.54, 0.10
-1730481991.42, 0.09
-1730481991.32, 0.24
-1730481991.23, 0.05
-1730481991.13, 0.14
-1730481991.02, 0.00
-1730481990.92, 0.00
-1730481990.82, 0.00
-1730481990.72, 0.00
-1730481990.62, 0.00
-1730481990.52, 0.00
-1730481990.42, 0.09
-1730481990.32, 0.01
-1730481990.21, 0.03
-1730481990.11, 0.12
-1730481990.02, 0.13
-1730481989.91, 0.23
-1730481989.81, 0.09
-1730481989.71, 0.00
-1730481989.61, 0.10
-1730481989.51, 0.00
-1730481989.41, 0.00
-1730481989.30, 0.00
-1730481989.21, 0.00
-1730481989.10, 0.10
-1730481989.00, 0.17
-1730481988.90, 0.17
-1730481988.80, 0.02
-1730481988.70, 0.15
-1730481988.59, 0.10
-1730481988.49, 0.16
-1730481988.39, 0.24
-1730481988.29, 0.26
-1730481988.19, 0.09
-1730481988.09, 0.00
-1730481987.99, 0.00
-1730481987.88, 0.00
-1730481987.79, 0.00
-1730481987.68, 0.00
-1730481987.59, 0.00
-1730481987.48, 0.02
-1730481987.38, 0.04
-1730481987.28, 0.00
-1730481987.17, 0.07
-1730481987.08, 0.08
-1730481986.98, 0.13
-1730481986.88, 0.26
-1730481986.77, 0.00
-1730481986.67, 0.01
-1730481986.57, 0.02
-1730481986.47, 0.00
-1730481986.37, 0.00
-1730481986.26, 0.00
-1730481986.16, 0.01
-1730481986.06, 0.00
-1730481985.96, 0.02
-1730481985.86, 0.05
-1730481985.76, 0.00
-1730481985.66, 0.09
-1730481985.56, 0.12
-1730481985.46, 0.26
-1730481985.35, 0.12
-1730481985.26, 0.04
-1730481985.15, 0.00
-1730481985.05, 0.00
-1730481984.95, 0.00
-1730481984.85, 0.00
-1730481984.75, 0.00
-1730481984.65, 0.00
-1730481984.54, 0.00
-1730481984.44, 0.00
-1730481984.33, 0.00
-1730481984.25, 0.01
-1730481984.14, 0.10
-1730481984.04, 0.13
-1730481983.94, 0.22
-1730481983.84, 0.18
-1730481983.73, 0.00
-1730481983.63, 0.06
-1730481983.54, 0.00
-1730481983.44, 0.00
-1730481983.33, 0.00
-1730481983.23, 0.00
-1730481983.13, 0.00
-1730481983.03, 0.14
-1730481982.92, 0.00
-1730481982.82, 0.00
-1730481982.72, 0.15
-1730481982.62, 0.07
-1730481982.52, 0.13
-1730481982.42, 0.23
-1730481982.32, 0.17
-1730481982.22, 0.16
-1730481982.12, 0.00
-1730481982.01, 0.02
-1730481981.92, 0.00
-1730481981.81, 0.00
-1730481981.71, 0.00
-1730481981.61, 0.00
-1730481981.51, 0.00
-1730481981.41, 0.13
-1730481981.30, 0.12
-1730481981.20, 0.12
-1730481981.11, 0.12
-1730481981.00, 0.21
-1730481980.90, 0.26
-1730481980.80, 0.00
-1730481980.70, 0.09
-1730481980.60, 0.00
-1730481980.49, 0.00
-1730481980.39, 0.00
-1730481980.29, 0.00
-1730481980.20, 0.05
-1730481980.09, 0.01
-1730481979.99, 0.00
-1730481979.89, 0.05
-1730481979.79, 0.02
-1730481979.68, 0.05
-1730481979.59, 0.13
-1730481979.48, 0.29
-1730481979.38, 0.10
-1730481979.28, 0.00
-1730481979.18, 0.12
-1730481979.08, 0.00
-1730481978.98, 0.00
-1730481978.88, 0.00
-1730481978.77, 0.00
-1730481978.68, 0.00
-1730481978.58, 0.17
-1730481978.47, 0.00
-1730481978.37, 0.06
-1730481978.27, 0.20
-1730481978.17, 0.05
-1730481978.07, 0.11
-1730481977.96, 0.16
-1730481977.87, 0.04
-1730481977.76, 0.06
-1730481977.66, 0.09
-1730481977.56, 0.00
-1730481977.46, 0.00
-1730481977.36, 0.00
-1730481977.25, 0.00
-1730481977.15, 0.01
-1730481977.05, 0.00
-1730481976.95, 0.06
-1730481976.85, 0.00
-1730481976.75, 0.08
-1730481976.65, 0.13
-1730481976.55, 0.08
-1730481976.44, 0.05
-1730481976.34, 0.03
-1730481976.24, 0.24
-1730481976.15, 0.00
-1730481976.04, 0.00
-1730481975.94, 0.00
-1730481975.84, 0.00
-1730481975.74, 0.00
-1730481975.64, 0.00
-1730481975.53, 0.20
-1730481975.43, 0.00
-1730481975.33, 0.08
-1730481975.24, 0.12
-1730481975.13, 0.12
-1730481975.03, 0.18
-1730481974.93, 0.11
-1730481974.83, 0.34
-1730481974.72, 0.14
-1730481974.63, 0.00
-1730481974.52, 0.00
-1730481974.42, 0.00
-1730481974.33, 0.00
-1730481974.22, 0.00
-1730481974.12, 0.00
-1730481974.02, 0.00
-1730481973.92, 0.00
-1730481973.82, 0.00
-1730481973.71, 0.08
-1730481973.62, 0.14
-1730481973.51, 0.22
-1730481973.41, 0.44
-1730481973.31, 0.07
-1730481973.20, 0.00
-1730481973.10, 0.00
-1730481973.00, 0.00
-1730481972.91, 0.00
-1730481972.81, 0.00
-1730481972.70, 0.00
-1730481972.60, 0.00
-1730481972.50, 0.09
-1730481972.40, 0.00
-1730481972.29, 0.17
-1730481972.19, 0.04
-1730481972.09, 0.12
-1730481972.00, 0.24
-1730481971.89, 0.17
-1730481971.79, 0.26
-1730481971.69, 0.00
-1730481971.59, 0.00
-1730481971.48, 0.00
-1730481971.39, 0.00
-1730481971.28, 0.00
-1730481971.18, 0.00
-1730481971.07, 0.00
-1730481970.98, 0.20
-1730481970.88, 0.00
-1730481970.78, 0.04
-1730481970.68, 0.13
-1730481970.57, 0.09
-1730481970.47, 0.25
-1730481970.37, 0.02
-1730481970.27, 0.09
-1730481970.17, 0.00
-1730481970.07, 0.00
-1730481969.97, 0.00
-1730481969.86, 0.00
-1730481969.76, 0.00
-1730481969.66, 0.01
-1730481969.56, 0.00
-1730481969.46, 0.00
-1730481969.36, 0.00
-1730481969.26, 0.16
-1730481969.16, 0.12
-1730481969.06, 0.13
-1730481968.96, 0.19
-1730481968.85, 0.05
-1730481968.75, 0.00
-1730481968.65, 0.02
-1730481968.55, 0.00
-1730481968.45, 0.00
-1730481968.34, 0.00
-1730481968.24, 0.00
-1730481968.15, 0.00
-1730481968.04, 0.00
-1730481967.94, 0.22
-1730481967.84, 0.00
-1730481967.74, 0.05
-1730481967.64, 0.07
-1730481967.53, 0.13
-1730481967.43, 0.22
-1730481967.34, 0.16
-1730481967.23, 0.10
-1730481967.13, 0.10
-1730481967.04, 0.00
-1730481966.93, 0.00
-1730481966.83, 0.00
-1730481966.73, 0.00
-1730481966.63, 0.00
-1730481966.53, 0.05
-1730481966.43, 0.00
-1730481966.32, 0.04
-1730481966.21, 0.00
-1730481966.11, 0.09
-1730481966.02, 0.19
-1730481965.92, 0.20
-1730481965.82, 0.01
-1730481965.72, 0.05
-1730481965.61, 0.00
-1730481965.51, 0.07
-1730481965.42, 0.00
-1730481965.31, 0.00
-1730481965.21, 0.00
-1730481965.11, 0.00
-1730481965.01, 0.00
-1730481964.90, 0.16
-1730481964.80, 0.06
-1730481964.70, 0.17
-1730481964.60, 0.08
-1730481964.50, 0.15
-1730481964.40, 0.17
-1730481964.30, 0.19
-1730481964.20, 0.00
-1730481964.10, 0.00
-1730481963.99, 0.04
-1730481963.89, 0.00
-1730481963.79, 0.00
-1730481963.70, 0.00
-1730481963.59, 0.00
-1730481963.49, 0.00
-1730481963.39, 0.00
-1730481963.29, 0.10
-1730481963.19, 0.04
-1730481963.08, 0.06
-1730481962.98, 0.05
-1730481962.88, 0.27
-1730481962.78, 0.04
-1730481962.68, 0.16
-1730481962.58, 0.00
-1730481962.47, 0.00
-1730481962.37, 0.00
-1730481962.27, 0.00
-1730481962.17, 0.00
-1730481962.07, 0.00
-1730481961.97, 0.00
-1730481961.87, 0.20
-1730481961.77, 0.00
-1730481961.67, 0.22
-1730481961.56, 0.10
-1730481961.47, 0.08
-1730481961.36, 0.11
-1730481961.26, 0.11
-1730481961.16, 0.08
-1730481961.06, 0.17
-1730481960.96, 0.00
-1730481960.86, 0.00
-1730481960.76, 0.00
-1730481960.66, 0.00
-1730481960.55, 0.00
-1730481960.45, 0.00
-1730481960.35, 0.06
-1730481960.25, 0.03
-1730481960.15, 0.15
-1730481960.05, 0.13
-1730481959.95, 0.14
-1730481959.85, 0.38
-1730481959.74, 0.23
-1730481959.64, 0.00
-1730481959.54, 0.00
-1730481959.44, 0.00
-1730481959.33, 0.00
-1730481959.24, 0.00
-1730481959.14, 0.00
-1730481959.04, 0.00
-1730481958.94, 0.12
-1730481958.84, 0.14
-1730481958.73, 0.18
-1730481958.63, 0.21
-1730481958.53, 0.12
-1730481958.43, 0.14
-1730481958.32, 0.25
-1730481958.23, 0.04
-1730481958.13, 0.00
-1730481958.02, 0.01
-1730481957.92, 0.00
-1730481957.82, 0.00
-1730481957.72, 0.00
-1730481957.62, 0.00
-1730481957.52, 0.00
-1730481957.41, 0.00
-1730481957.32, 0.09
-1730481957.22, 0.00
-1730481957.11, 0.40
-1730481957.01, 0.56
-1730481956.91, 0.99
-1730481956.81, 0.88
-1730481956.71, 1.30
-1730481956.61, 0.00
-1730481956.50, 0.00
-1730481956.39, 0.00
-1730481956.30, 0.00
-1730481956.20, 0.00
-1730481956.10, 0.33
-1730481956.00, 0.00
-1730481955.90, 0.07
-1730481955.80, 0.00
-1730481955.70, 2.88
-1730481955.59, 5.00
-1730481955.49, 5.00
-1730481955.39, 5.00
-1730481955.29, 5.00
-1730481955.19, 4.26
-1730481955.09, 4.46
-1730481954.98, 0.00
-1730481954.88, 0.00
-1730481954.78, 0.00
-1730481954.68, 0.00
-1730481954.58, 0.00
-1730481954.47, 0.00
-1730481954.38, 0.00
-1730481954.27, 0.21
-1730481954.18, 5.00
-1730481954.07, 5.00
-1730481953.97, 5.00
-1730481953.87, 4.61
-1730481953.77, 4.84
-1730481953.67, 2.22
-1730481953.57, 0.00
-1730481953.47, 0.00
-1730481953.36, 0.00
-1730481953.26, 0.00
-1730481953.16, 0.00
-1730481953.06, 0.25
-1730481952.96, 0.06
-1730481952.86, 1.59
-1730481952.76, 3.26
-1730481952.66, 5.00
-1730481952.56, 5.00
-1730481952.46, 4.93
-1730481952.35, 4.82
-1730481952.25, 3.07
-1730481952.15, 0.21
-1730481952.05, 0.43
-1730481951.95, 0.00
-1730481951.84, 0.00
-1730481951.74, 0.00
-1730481951.64, 0.14
-1730481951.54, 0.74
-1730481951.44, 1.67
-1730481951.34, 1.60
-1730481951.24, 5.00
-1730481951.14, 5.00
-1730481951.04, 4.72
-1730481950.93, 5.00
-1730481950.83, 4.05
-1730481950.73, 1.04
-1730481950.63, 0.46
-1730481950.52, 0.00
-1730481950.43, 0.00
-1730481950.33, 0.00
-1730481950.22, 0.00
-1730481950.12, 0.00
-1730481950.02, 0.00
-1730481949.92, 0.14
-1730481949.82, 5.00
-1730481949.72, 5.00
-1730481949.62, 5.00
-1730481949.51, 5.00
-1730481949.41, 3.04
-1730481949.32, 4.24
-1730481949.21, 4.08
-1730481949.11, 0.00
-1730481949.01, 0.00
-1730481948.91, 0.00
-1730481948.80, 0.00
-1730481948.70, 0.00
-1730481948.60, 0.00
-1730481948.50, 0.76
-1730481948.40, 0.97
-1730481948.30, 5.00
-1730481948.20, 5.00
-1730481948.10, 4.66
-1730481948.00, 5.00
-1730481947.89, 3.30
-1730481947.80, 5.00
-1730481947.69, 2.52
-1730481947.59, 0.00
-1730481947.49, 0.00
-1730481947.39, 0.00
-1730481947.28, 0.46
-1730481947.19, 1.66
-1730481947.08, 0.66
-1730481946.97, 0.45
-1730481946.87, 4.58
-1730481946.78, 5.00
-1730481946.68, 5.00
-1730481946.58, 5.00
-1730481946.48, 5.00
-1730481946.38, 5.00
-1730481946.28, 4.84
-1730481946.17, 0.00
-1730481946.07, 0.00
-1730481945.97, 0.00
-1730481945.86, 0.00
-1730481945.77, 0.00
-1730481945.67, 0.00
-1730481945.56, 0.31
-1730481945.46, 3.75
-1730481945.36, 5.00
-1730481945.26, 5.00
-1730481945.16, 5.00
-1730481945.06, 4.90
-1730481944.95, 5.00
-1730481944.85, 4.29
-1730481944.75, 0.00
-1730481944.65, 0.00
-1730481944.55, 0.00
-1730481944.45, 0.07
-1730481944.35, 0.00
-1730481944.25, 1.07
-1730481944.14, 0.56
-1730481944.05, 0.98
-1730481943.95, 5.00
-1730481943.84, 5.00
-1730481943.74, 4.82
-1730481943.63, 5.00
-1730481943.53, 4.15
-1730481943.43, 4.54
-1730481943.33, 0.00
-1730481943.23, 0.00
-1730481943.12, 0.00
-1730481943.03, 0.00
-1730481942.93, 0.00
-1730481942.83, 0.46
-1730481942.72, 0.43
-1730481942.62, 0.78
-1730481942.52, 5.00
-1730481942.43, 5.00
-1730481942.32, 5.00
-1730481942.21, 5.00
-1730481942.11, 3.85
-1730481942.02, 4.25
-1730481941.92, 2.65
-1730481941.81, 0.21
-1730481941.71, 0.00
-1730481941.60, 0.00
-1730481941.51, 0.08
-1730481941.40, 0.00
-1730481941.30, 0.00
-1730481941.20, 0.32
-1730481941.11, 1.50
-1730481941.00, 4.98
-1730481940.90, 5.00
-1730481940.79, 5.00
-1730481940.71, 5.00
-1730481940.60, 4.61
-1730481940.50, 4.68
-1730481940.40, 0.35
-1730481940.29, 0.00
-1730481940.19, 0.00
-1730481940.08, 0.00
-1730481939.99, 0.68
-1730481939.89, 1.14
-1730481939.78, 3.50
-1730481939.69, 3.87
-1730481939.59, 3.70
-1730481939.49, 3.68
-1730481939.39, 3.42
-1730481939.27, 3.85
-1730481939.14, 5.00
-1730481939.08, 4.60
-1730481938.98, 1.30
-1730481938.88, 0.00
-1730481938.77, 0.00
-1730481938.67, 0.00
-1730481938.57, 0.00
-1730481938.47, 0.00
-1730481938.37, 0.27
-1730481938.27, 1.67
-1730481938.17, 1.76
-1730481938.06, 2.04
-1730481937.96, 2.26
-1730481937.86, 1.94
-1730481937.76, 2.86
-1730481937.66, 2.58
-1730481937.56, 2.19
-1730481937.46, 2.26
-1730481937.36, 2.33
-1730481937.26, 2.39
-1730481937.15, 2.50
-1730481937.05, 2.40
-1730481936.95, 2.34
-1730481936.85, 2.43
-1730481936.76, 2.61
-1730481936.65, 2.56
-1730481936.54, 2.61
-1730481936.44, 2.60
-1730481936.33, 2.93
-1730481936.25, 2.24
-1730481936.14, 2.53
-1730481936.04, 2.29
-1730481935.94, 2.51
-1730481935.84, 2.76
-1730481935.74, 2.58
-1730481935.63, 3.19
-1730481935.54, 3.04
-1730481935.43, 3.67
-1730481935.32, 3.77
-1730481935.22, 4.00
-1730481935.13, 4.62
-1730481935.02, 4.55
-1730481934.93, 5.00
-1730481934.83, 5.00
-1730481934.73, 4.44
-1730481934.62, 3.59
-1730481934.53, 3.54
-1730481934.42, 3.08
-1730481934.32, 3.23
-1730481934.21, 2.19
-1730481934.12, 1.39
-1730481934.02, 0.88
-1730481933.91, 2.03
-1730481933.81, 2.31
-1730481933.71, 2.28
-1730481933.61, 2.22
-1730481933.50, 1.93
-1730481933.41, 2.23
-1730481933.31, 2.80
-1730481933.20, 2.83
-1730481933.10, 2.95
-1730481932.99, 0.00
-1730481932.90, 0.00
-1730481932.80, 1.69
-1730481932.69, 1.30
-1730481932.60, 2.46
-1730481932.49, 3.04
-1730481932.39, 2.86
-1730481932.30, 2.88
-1730481932.18, 2.66
-1730481932.08, 2.87
-1730481931.98, 2.59
-1730481931.88, 2.42
-1730481931.78, 2.37
-1730481931.67, 2.27
-1730481931.58, 2.22
-1730481931.49, 2.07
-1730481931.37, 1.91
-1730481931.28, 2.40
-1730481931.18, 2.38
-1730481931.07, 2.62
-1730481930.98, 2.45
-1730481930.88, 2.65
-1730481930.77, 2.35
-1730481930.66, 2.52
-1730481930.57, 2.28
-1730481930.46, 2.35
-1730481930.37, 2.42
-1730481930.26, 2.37
-1730481930.16, 2.37
-1730481930.07, 2.24
-1730481929.95, 2.15
-1730481929.85, 2.79
-1730481929.76, 2.25
-1730481929.66, 2.52
-1730481929.55, 2.56
-1730481929.45, 2.77
-1730481929.34, 2.59
-1730481929.25, 2.80
-1730481929.15, 2.71
-1730481929.04, 2.66
-1730481928.95, 2.53
-1730481928.85, 2.42
-1730481928.75, 2.41
-1730481928.65, 2.33
-1730481928.54, 2.87
-1730481928.43, 2.77
-1730481928.33, 2.61
-1730481928.23, 2.66
-1730481928.14, 2.63
-1730481928.02, 2.71
-1730481927.92, 2.67
-1730481927.83, 2.53
-1730481927.73, 2.64
-1730481927.62, 2.51
-1730481927.53, 2.58
-1730481927.43, 2.52
-1730481927.32, 2.39
-1730481927.23, 2.55
-1730481927.13, 2.24
-1730481927.02, 2.27
-1730481926.92, 2.95
-1730481926.81, 2.75
-1730481926.71, 2.65
-1730481926.62, 2.78
-1730481926.50, 2.94
-1730481926.41, 3.01
-1730481926.31, 2.69
-1730481926.20, 2.29
-1730481926.11, 2.58
-1730481926.00, 2.53
-1730481925.90, 2.70
-1730481925.81, 2.69
-1730481925.70, 2.71
-1730481925.60, 2.66
-1730481925.50, 2.63
-1730481925.40, 2.71
-1730481925.30, 2.69
-1730481925.19, 2.78
-1730481925.09, 3.01
-1730481924.99, 2.70
-1730481924.89, 3.02
-1730481924.79, 2.56
-1730481924.68, 2.53
-1730481924.59, 2.57
-1730481924.49, 0.72
-1730481924.39, 2.20
-1730481924.28, 2.39
-1730481924.18, 2.30
-1730481924.08, 2.48
-1730481923.99, 2.30
-1730481923.88, 2.39
-1730481923.78, 2.72
-1730481923.67, 4.53
-1730481923.58, 4.60
-1730481923.47, 2.69
-1730481923.37, 0.68
-1730481923.27, 0.00
-1730481923.17, 0.00
-1730481923.07, 0.00
-1730481922.96, 0.00
-1730481922.86, 2.35
-1730481922.76, 2.41
-1730481922.66, 3.05
-1730481922.56, 2.72
-1730481922.46, 2.75
-1730481922.36, 2.82
-1730481922.26, 3.04
-1730481922.15, 3.28
-1730481922.05, 2.88
-1730481921.95, 2.21
-1730481921.85, 2.25
-1730481921.75, 2.71
-1730481921.65, 2.54
-1730481921.55, 2.33
-1730481921.45, 2.18
-1730481921.35, 2.59
-1730481921.24, 2.69
-1730481921.14, 0.68
-1730481921.04, 2.53
-1730481920.95, 1.63
-1730481920.84, 1.56
-1730481920.74, 1.93
-1730481920.64, 2.29
-1730481920.53, 1.66
-1730481920.43, 2.24
-1730481920.33, 2.10
-1730481920.24, 2.02
-1730481920.12, 2.33
-1730481920.02, 1.78
-1730481919.93, 2.30
-1730481919.83, 2.58
-1730481919.72, 2.93
-1730481919.63, 3.08
-1730481919.53, 3.70
-1730481919.42, 4.19
-1730481919.32, 4.04
-1730481919.22, 5.00
-1730481919.11, 5.00
-1730481919.01, 2.77
-1730481918.92, 2.55
-1730481918.81, 2.59
-1730481918.71, 2.54
-1730481918.60, 2.56
-1730481918.50, 3.18
-1730481918.40, 2.71
-1730481918.31, 3.23
-1730481918.21, 3.54
-1730481918.10, 4.07
-1730481917.99, 4.45
-1730481917.90, 4.75
-1730481917.80, 4.80
-1730481917.70, 4.42
-1730481917.59, 3.83
-1730481917.49, 3.96
-1730481917.40, 3.68
-1730481917.29, 3.63
-1730481917.18, 3.58
-1730481917.09, 3.60
-1730481916.99, 3.60
-1730481916.88, 3.69
-1730481916.79, 3.86
-1730481916.68, 4.13
-1730481916.58, 4.32
-1730481916.48, 4.53
-1730481916.38, 5.00
-1730481916.27, 4.99
-1730481916.18, 4.97
-1730481916.08, 4.63
-1730481915.97, 4.09
-1730481915.87, 3.92
-1730481915.78, 3.67
-1730481915.67, 3.41
-1730481915.57, 3.84
-1730481915.46, 4.13
-1730481915.36, 3.99
-1730481915.27, 4.09
-1730481915.16, 4.39
-1730481915.06, 4.32
-1730481914.96, 4.49
-1730481914.86, 5.00
-1730481914.75, 4.66
-1730481914.66, 3.63
-1730481914.56, 3.22
-1730481914.45, 2.89
-1730481914.35, 2.53
-1730481914.25, 2.87
-1730481914.15, 2.70
-1730481914.04, 2.42
-1730481913.95, 2.88
-1730481913.84, 2.65
-1730481913.74, 2.61
-1730481913.64, 2.83
-1730481913.54, 2.43
-1730481913.44, 2.48
-1730481913.33, 2.88
-1730481913.24, 2.41
-1730481913.14, 2.50
-1730481913.03, 2.45
-1730481912.94, 2.40
-1730481912.83, 2.84
-1730481912.73, 2.47
-1730481912.63, 2.89
-1730481912.53, 2.57
-1730481912.43, 2.59
-1730481912.33, 2.61
-1730481912.22, 2.71
-1730481912.11, 2.31
-1730481912.01, 2.83
-1730481911.92, 2.56
-1730481911.82, 2.39
-1730481911.71, 2.50
-1730481911.60, 2.46
-1730481911.50, 2.54
-1730481911.42, 2.97
-1730481911.31, 2.87
-1730481911.22, 2.49
-1730481911.10, 2.65
-1730481911.01, 2.61
-1730481910.90, 2.74
-1730481910.80, 2.61
-1730481910.70, 3.09
-1730481910.60, 2.52
-1730481910.50, 2.61
-1730481910.40, 2.37
-1730481910.30, 2.50
-1730481910.20, 2.54
-1730481910.10, 2.77
-1730481909.99, 2.89
-1730481909.90, 2.52
-1730481909.80, 2.83
-1730481909.69, 2.71
-1730481909.59, 2.70
-1730481909.48, 2.71
-1730481909.39, 2.80
-1730481909.28, 3.21
-1730481909.18, 2.96
-1730481909.08, 2.66
-1730481908.98, 2.61
-1730481908.88, 2.57
-1730481908.78, 2.60
-1730481908.68, 2.37
-1730481908.57, 2.62
-1730481908.46, 2.31
-1730481908.37, 2.93
-1730481908.28, 2.65
-1730481908.17, 2.66
-1730481908.07, 2.65
-1730481907.97, 2.86
-1730481907.86, 2.73
-1730481907.77, 2.94
-1730481907.66, 2.31
-1730481907.56, 2.43
-1730481907.46, 2.57
-1730481907.36, 2.63
-1730481907.26, 2.71
-1730481907.16, 2.24
-1730481907.05, 2.83
-1730481906.96, 2.47
-1730481906.85, 2.80
-1730481906.75, 2.71
-1730481906.65, 2.62
-1730481906.55, 2.94
-1730481906.45, 2.99
-1730481906.35, 2.69
-1730481906.24, 2.67
-1730481906.15, 2.48
-1730481906.04, 2.57
-1730481905.94, 2.58
-1730481905.83, 2.72
-1730481905.74, 2.33
-1730481905.63, 2.48
-1730481905.53, 2.81
-1730481905.43, 2.99
-1730481905.33, 2.70
-1730481905.23, 2.66
-1730481905.12, 2.90
-1730481905.03, 2.77
-1730481904.93, 3.05
-1730481904.82, 2.36
-1730481904.73, 2.38
-1730481904.62, 2.67
-1730481904.52, 2.71
-1730481904.42, 2.69
-1730481904.32, 2.70
-1730481904.22, 2.37
-1730481904.12, 2.75
-1730481904.02, 2.84
-1730481903.90, 2.95
-1730481903.81, 3.11
-1730481903.71, 2.98
-1730481903.61, 3.14
-1730481903.51, 3.08
-1730481903.40, 3.06
-1730481903.30, 2.79
-1730481903.21, 2.79
-1730481903.10, 2.79
-1730481903.01, 2.94
-1730481902.90, 2.86
-1730481902.80, 3.00
-1730481902.69, 2.80
-1730481902.59, 2.91
-1730481902.50, 2.89
-1730481902.39, 2.88
-1730481902.29, 2.91
-1730481902.19, 2.99
-1730481902.09, 2.67
-1730481901.98, 2.81
-1730481901.89, 2.71
-1730481901.79, 2.68
-1730481901.68, 2.66
-1730481901.59, 2.64
-1730481901.48, 2.69
-1730481901.38, 2.71
-1730481901.28, 2.61
-1730481901.18, 2.72
-1730481901.08, 2.74
-1730481900.97, 2.74
-1730481900.88, 2.74
-1730481900.77, 2.77
-1730481900.67, 2.65
-1730481900.57, 2.71
-1730481900.47, 2.56
-1730481900.36, 2.63
-1730481900.27, 2.61
-1730481900.16, 2.61
-1730481900.06, 2.68
-1730481899.96, 2.61
-1730481899.85, 2.69
-1730481899.76, 2.61
-1730481899.65, 2.71
-1730481899.53, 2.70
-1730481899.46, 2.74
-1730481899.35, 2.80
-1730481899.25, 2.81
-1730481899.14, 2.69
-1730481899.05, 2.67
-1730481898.94, 2.53
-1730481898.85, 2.59
-1730481898.74, 2.57
-1730481898.64, 2.51
-1730481898.55, 2.61
-1730481898.44, 2.69
-1730481898.33, 2.67
-1730481898.23, 2.72
-1730481898.13, 2.64
-1730481898.03, 2.69
-1730481897.93, 2.72
-1730481897.83, 2.76
-1730481897.73, 2.60
-1730481897.62, 2.63
-1730481897.53, 2.48
-1730481897.43, 2.52
-1730481897.32, 2.53
-1730481897.23, 2.56
-1730481897.12, 2.54
-1730481897.03, 2.51
-1730481896.93, 2.68
-1730481896.82, 2.63
-1730481896.72, 2.10
-1730481896.62, 5.00
-1730481896.51, 5.00
-1730481896.41, 5.00
-1730481896.31, 2.13
-1730481896.21, 2.39
-1730481896.12, 2.44
-1730481896.01, 2.15
-1730481895.91, 2.26
-1730481895.80, 2.27
-1730481895.70, 2.03
-1730481895.60, 2.61
-1730481895.50, 2.32
-1730481895.40, 2.42
-1730481895.30, 2.48
-1730481895.20, 2.46
-1730481895.10, 2.44
-1730481895.00, 2.78
-1730481894.90, 2.41
-1730481894.79, 2.29
-1730481894.68, 2.55
-1730481894.59, 2.27
-1730481894.49, 2.46
-1730481894.38, 2.46
-1730481894.28, 2.52
-1730481894.19, 2.25
-1730481894.07, 2.47
-1730481893.98, 2.68
-1730481893.88, 2.44
-1730481893.77, 2.68
-1730481893.68, 2.65
-1730481893.58, 2.64
-1730481893.47, 2.64
-1730481893.38, 2.49
-1730481893.27, 2.30
-1730481893.17, 2.47
-1730481893.07, 2.46
-1730481892.96, 2.50
-1730481892.86, 2.44
-1730481892.76, 2.47
-1730481892.66, 2.82
-1730481892.55, 2.53
-1730481892.47, 2.42
-1730481892.35, 2.70
-1730481892.25, 2.58
-1730481892.16, 2.63
-1730481892.05, 2.71
-1730481891.96, 3.14
-1730481891.85, 2.64
-1730481891.75, 2.56
-1730481891.65, 2.48
-1730481891.54, 2.47
-1730481891.45, 2.46
-1730481891.34, 2.46
-1730481891.24, 2.66
-1730481891.14, 2.42
-1730481891.05, 2.54
-1730481890.94, 2.37
-1730481890.84, 2.61
-1730481890.73, 2.61
-1730481890.63, 2.72
-1730481890.54, 2.71
-1730481890.44, 2.54
-1730481890.33, 2.63
-1730481890.24, 2.65
-1730481890.13, 2.50
-1730481890.03, 2.53
-1730481889.93, 2.41
-1730481889.83, 2.59
-1730481889.72, 2.73
-1730481889.62, 2.90
-1730481889.53, 2.54
-1730481889.42, 2.84
-1730481889.32, 2.80
-1730481889.22, 2.93
-1730481889.12, 3.11
-1730481889.02, 3.26
-1730481888.91, 3.34
-1730481888.82, 2.52
-1730481888.71, 2.78
-1730481888.61, 2.74
-1730481888.51, 2.81
-1730481888.41, 2.73
-1730481888.30, 2.76
-1730481888.21, 3.17
-1730481888.11, 3.01
-1730481888.00, 2.61
-1730481887.91, 2.98
-1730481887.80, 2.86
-1730481887.70, 2.81
-1730481887.59, 2.70
-1730481887.49, 2.62
-1730481887.39, 2.42
-1730481887.28, 2.81
-1730481887.19, 2.75
-1730481887.10, 2.79
-1730481886.98, 2.71
-1730481886.88, 2.66
-1730481886.78, 2.99
-1730481886.69, 2.42
-1730481886.59, 2.33
-1730481886.48, 2.80
-1730481886.38, 2.69
-1730481886.27, 2.81
-1730481886.18, 2.74
-1730481886.07, 2.75
-1730481885.97, 2.85
-1730481885.87, 2.91
-1730481885.77, 2.66
-1730481885.67, 2.30
-1730481885.56, 1.60
-1730481885.47, 0.00
-1730481885.37, 0.00
-1730481885.27, 0.00
-1730481885.16, 0.00
-1730481885.06, 0.94
-1730481884.96, 0.16
-1730481884.86, 1.23
-1730481884.76, 2.81
-1730481884.66, 4.55
-1730481884.55, 5.00
-1730481884.45, 3.95
-1730481884.36, 4.18
-1730481884.25, 2.96
-1730481884.16, 2.93
-1730481884.05, 2.86
-1730481883.94, 2.77
-1730481883.84, 3.17
-1730481883.75, 2.60
-1730481883.64, 1.63
-1730481883.54, 1.01
-1730481883.44, 2.30
-1730481883.34, 1.32
-1730481883.23, 2.38
-1730481883.14, 2.39
-1730481883.04, 2.42
-1730481882.93, 2.45
-1730481882.84, 2.47
-1730481882.73, 2.48
-1730481882.63, 2.47
-1730481882.53, 2.45
-1730481882.42, 2.44
-1730481882.33, 2.42
-1730481882.23, 2.42
-1730481882.12, 2.43
-1730481882.02, 2.44
-1730481881.92, 2.44
-1730481881.83, 2.46
-1730481881.72, 2.48
-1730481881.62, 2.49
-1730481881.51, 2.51
-1730481881.41, 2.54
-1730481881.31, 2.53
-1730481881.21, 2.53
-1730481881.11, 2.52
-1730481881.01, 2.50
-1730481880.91, 2.47
-1730481880.80, 2.46
-1730481880.71, 2.44
-1730481880.60, 2.45
-1730481880.51, 2.46
-1730481880.41, 2.46
-1730481880.30, 2.47
-1730481880.19, 2.49
-1730481880.09, 2.50
-1730481880.00, 2.51
-1730481879.90, 2.53
-1730481879.79, 2.55
-1730481879.69, 2.53
-1730481879.59, 2.51
-1730481879.49, 2.50
-1730481879.39, 2.47
-1730481879.29, 2.45
-1730481879.18, 2.45
-1730481879.09, 2.45
-1730481878.98, 2.44
-1730481878.88, 2.46
-1730481878.78, 2.47
-1730481878.68, 2.49
-1730481878.58, 2.50
-1730481878.47, 2.53
-1730481878.37, 2.57
-1730481878.28, 2.60
-1730481878.18, 2.60
-1730481878.07, 2.59
-1730481877.97, 2.65
-1730481877.87, 2.63
-1730481877.77, 2.64
-1730481877.66, 2.63
-1730481877.57, 2.66
-1730481877.46, 0.00
-1730481877.36, 0.22
-1730481877.25, 0.74
-1730481877.16, 4.92
-1730481877.05, 5.00
-1730481876.95, 5.00
-1730481876.85, 5.00
-1730481876.75, 4.22
-1730481876.65, 4.48
-1730481876.54, 1.73
-1730481876.44, 0.00
-1730481876.34, 0.00
-1730481876.24, 0.00
-1730481876.15, 0.00
-1730481876.04, 0.00
-1730481875.95, 0.00
-1730481875.85, 0.00
-1730481875.74, 0.00
-1730481875.64, 0.74
-1730481875.54, 3.87
-1730481875.43, 5.00
-1730481875.33, 5.00
-1730481875.24, 4.97
-1730481875.14, 5.00
-1730481875.03, 5.00
-1730481874.93, 4.87
-1730481874.83, 5.00
-1730481874.73, 5.00
-1730481874.63, 2.48
-1730481874.53, 3.84
-1730481874.41, 3.76
-1730481874.32, 3.70
-1730481874.22, 3.67
-1730481874.12, 3.62
-1730481874.01, 3.63
-1730481873.91, 3.65
-1730481873.82, 3.69
-1730481873.71, 3.74
-1730481873.62, 3.68
-1730481873.51, 3.66
-1730481873.41, 3.66
-1730481873.30, 3.64
-1730481873.21, 3.61
-1730481873.10, 3.61
-1730481872.99, 3.59
-1730481872.90, 3.58
-1730481872.81, 3.60
-1730481872.69, 3.59
-1730481872.60, 3.59
-1730481872.50, 3.61
-1730481872.39, 3.62
-1730481872.29, 3.63
-1730481872.19, 3.64
-1730481872.09, 3.67
-1730481871.99, 3.65
-1730481871.89, 3.65
-1730481871.78, 3.63
-1730481871.68, 3.61
-1730481871.58, 3.61
-1730481871.48, 3.58
-1730481871.39, 3.59
-1730481871.28, 3.58
-1730481871.17, 3.60
-1730481871.08, 3.59
-1730481870.97, 3.61
-1730481870.87, 3.61
-1730481870.76, 3.62
-1730481870.68, 3.64
-1730481870.57, 3.65
-1730481870.47, 3.65
-1730481870.37, 3.65
-1730481870.27, 3.63
-1730481870.17, 3.61
-1730481870.07, 3.60
-1730481869.96, 3.57
-1730481869.86, 3.57
-1730481869.76, 3.59
-1730481869.66, 3.58
-1730481869.56, 3.58
-1730481869.45, 3.60
-1730481869.35, 3.61
-1730481869.26, 3.62
-1730481869.15, 3.63
-1730481869.05, 3.65
-1730481868.95, 3.65
-1730481868.85, 3.64
-1730481868.75, 3.63
-1730481868.64, 3.60
-1730481868.54, 3.59
-1730481868.44, 3.58
-1730481868.34, 3.58
-1730481868.24, 3.57
-1730481868.14, 3.58
-1730481868.04, 3.58
-1730481867.94, 3.59
-1730481867.83, 3.60
-1730481867.74, 3.62
-1730481867.63, 3.63
-1730481867.53, 3.64
-1730481867.43, 3.65
-1730481867.33, 3.65
-1730481867.22, 3.63
-1730481867.13, 3.60
-1730481867.03, 3.60
-1730481866.92, 3.57
-1730481866.81, 3.57
-1730481866.72, 3.58
-1730481866.62, 3.58
-1730481866.52, 3.57
-1730481866.42, 3.60
-1730481866.32, 3.61
-1730481866.21, 3.62
-1730481866.11, 3.66
-1730481866.01, 3.70
-1730481865.91, 3.71
-1730481865.81, 3.72
-1730481865.71, 3.64
-1730481865.61, 3.60
-1730481865.51, 3.59
-1730481865.40, 3.57
-1730481865.30, 3.55
-1730481865.21, 3.57
-1730481865.09, 3.57
-1730481865.00, 3.58
-1730481864.90, 3.58
-1730481864.80, 3.60
-1730481864.70, 3.61
-1730481864.59, 3.63
-1730481864.49, 3.65
-1730481864.39, 3.65
-1730481864.29, 3.65
-1730481864.18, 3.63
-1730481864.09, 3.60
-1730481863.98, 3.58
-1730481863.89, 4.03
-1730481863.78, 3.87
-1730481863.68, 3.73
-1730481863.58, 3.51
-1730481863.48, 1.69
-1730481863.38, 1.86
-1730481863.27, 2.47
-1730481863.18, 3.06
-1730481863.07, 3.94
-1730481862.98, 5.00
-1730481862.87, 5.00
-1730481862.77, 5.00
-1730481862.66, 5.00
-1730481862.56, 3.58
-1730481862.47, 3.58
-1730481862.36, 3.55
-1730481862.26, 3.56
-1730481862.16, 3.56
-1730481862.06, 3.56
-1730481861.96, 3.58
-1730481861.85, 3.58
-1730481861.75, 3.60
-1730481861.66, 3.60
-1730481861.56, 3.62
-1730481861.45, 3.64
-1730481861.35, 3.65
-1730481861.25, 3.64
-1730481861.15, 3.66
-1730481861.04, 3.75
-1730481860.94, 3.57
-1730481860.85, 4.09
-1730481860.74, 3.60
-1730481860.64, 2.03
-1730481860.54, 3.37
-1730481860.43, 3.68
-1730481860.34, 3.37
-1730481860.23, 3.74
-1730481860.13, 3.66
-1730481860.03, 3.80
-1730481859.93, 3.63
-1730481859.82, 3.36
-1730481859.73, 3.81
-1730481859.62, 3.66
-1730481859.52, 3.69
-1730481859.42, 3.50
-1730481859.32, 3.51
-1730481859.22, 3.35
-1730481859.12, 3.66
-1730481859.02, 3.54
-1730481858.91, 3.72
-1730481858.81, 3.58
-1730481858.71, 3.71
-1730481858.61, 3.65
-1730481858.51, 3.70
-1730481858.41, 3.86
-1730481858.31, 3.65
-1730481858.20, 3.74
-1730481858.10, 3.40
-1730481858.00, 3.35
-1730481857.90, 3.52
-1730481857.81, 3.57
-1730481857.70, 3.78
-1730481857.60, 3.73
-1730481857.50, 3.25
-1730481857.40, 3.79
-1730481857.29, 3.77
-1730481857.20, 3.70
-1730481857.09, 3.70
-1730481857.00, 3.81
-1730481856.89, 3.47
-1730481856.79, 3.28
-1730481856.68, 3.70
-1730481856.59, 3.78
-1730481856.48, 3.53
-1730481856.39, 3.47
-1730481856.28, 3.56
-1730481856.18, 3.51
-1730481856.08, 3.48
-1730481855.98, 2.88
-1730481855.87, 3.68
-1730481855.77, 1.79
-1730481855.67, 3.53
-1730481855.57, 4.84
-1730481855.47, 5.00
-1730481855.37, 5.00
-1730481855.27, 3.94
-1730481855.17, 2.19
-1730481855.06, 0.00
-1730481854.96, 0.00
-1730481854.86, 0.00
-1730481854.76, 0.00
-1730481854.66, 0.00
-1730481854.55, 0.00
-1730481854.46, 0.45
-1730481854.35, 0.66
-1730481854.26, 0.87
-1730481854.16, 2.39
-1730481854.06, 3.64
-1730481853.95, 4.23
-1730481853.85, 5.00
-1730481853.75, 4.23
-1730481853.65, 1.96
-1730481853.54, 0.46
-1730481853.45, 0.00
-1730481853.34, 0.00
-1730481853.24, 0.00
-1730481853.14, 0.00
-1730481853.04, 0.00
-1730481852.94, 0.00
-1730481852.84, 0.00
-1730481852.74, 0.10
-1730481852.64, 1.01
-1730481852.53, 1.94
-1730481852.43, 2.56
-1730481852.33, 2.89
-1730481852.22, 4.03
-1730481852.11, 3.50
-1730481852.03, 1.81
-1730481851.92, 0.65
-1730481851.82, 0.02
-1730481851.72, 0.00
-1730481851.62, 0.00
-1730481851.52, 0.00
-1730481851.42, 0.06
-1730481851.31, 0.28
-1730481851.22, 0.91
-1730481851.11, 0.19
-1730481851.00, 0.28
-1730481850.91, 3.63
-1730481850.81, 5.00
-1730481850.71, 5.00
-1730481850.61, 4.76
-1730481850.51, 5.00
-1730481850.41, 5.00
-1730481850.31, 4.67
-1730481850.20, 2.46
-1730481850.10, 0.00
-1730481850.00, 0.00
-1730481849.90, 0.00
-1730481849.79, 0.23
-1730481849.70, 0.00
-1730481849.60, 0.00
-1730481849.49, 0.78
-1730481849.40, 1.91
-1730481849.29, 5.00
-1730481849.19, 5.00
-1730481849.09, 5.00
-1730481848.99, 4.61
-1730481848.89, 4.76
-1730481848.79, 5.00
-1730481848.69, 4.47
-1730481848.58, 0.00
-1730481848.48, 0.00
-1730481848.38, 0.00
-1730481848.28, 0.02
-1730481848.17, 0.00
-1730481848.07, 0.00
-1730481847.98, 0.38
-1730481847.88, 0.00
-1730481847.77, 2.52
-1730481847.68, 5.00
-1730481847.57, 5.00
-1730481847.47, 5.00
-1730481847.36, 4.39
-1730481847.26, 4.40
-1730481847.16, 5.00
-1730481847.06, 2.25
-1730481846.96, 0.00
-1730481846.87, 0.00
-1730481846.76, 0.00
-1730481846.65, 0.00
-1730481846.56, 0.00
-1730481846.46, 0.00
-1730481846.35, 0.53
-1730481846.26, 1.66
-1730481846.16, 4.07
-1730481846.05, 5.00
-1730481845.95, 3.72
-1730481845.84, 3.76
-1730481845.75, 3.40
-1730481845.64, 3.69
-1730481845.54, 3.90
-1730481845.44, 3.73
-1730481845.34, 1.65
-1730481845.23, 0.00
-1730481845.14, 3.28
-1730481845.04, 3.31
-1730481844.94, 3.29
-1730481844.84, 3.31
-1730481844.72, 3.37
-1730481844.62, 3.49
-1730481844.52, 3.63
-1730481844.43, 3.71
-1730481844.33, 3.78
-1730481844.23, 3.74
-1730481844.12, 3.63
-1730481844.03, 3.39
-1730481843.92, 3.49
-1730481843.82, 3.49
-1730481843.73, 3.47
-1730481843.62, 3.70
-1730481843.52, 3.33
-1730481843.41, 3.34
-1730481843.32, 3.62
-1730481843.21, 3.58
-1730481843.11, 3.67
-1730481843.01, 3.62
-1730481842.90, 3.69
-1730481842.80, 3.65
-1730481842.71, 3.88
-1730481842.60, 3.58
-1730481842.50, 3.55
-1730481842.41, 3.65
-1730481842.30, 3.49
-1730481842.20, 3.53
-1730481842.10, 3.51
-1730481841.99, 3.67
-1730481841.89, 3.86
-1730481841.80, 3.73
-1730481841.69, 3.70
-1730481841.59, 3.67
-1730481841.49, 3.57
-1730481841.39, 3.56
-1730481841.28, 3.43
-1730481841.18, 3.78
-1730481841.09, 3.40
-1730481840.98, 3.33
-1730481840.88, 3.50
-1730481840.79, 3.52
-1730481840.68, 3.49
-1730481840.58, 3.77
-1730481840.47, 3.35
-1730481840.38, 3.60
-1730481840.28, 3.57
-1730481840.17, 3.59
-1730481840.07, 3.58
-1730481839.97, 3.61
-1730481839.86, 3.68
-1730481839.76, 3.43
-1730481839.67, 3.55
-1730481839.56, 3.84
-1730481839.46, 3.55
-1730481839.36, 3.53
-1730481839.25, 3.49
-1730481839.16, 3.58
-1730481839.06, 3.54
-1730481838.95, 3.45
-1730481838.86, 3.71
-1730481838.76, 3.61
-1730481838.65, 3.62
-1730481838.55, 3.63
-1730481838.45, 3.62
-1730481838.35, 3.43
-1730481838.24, 3.52
-1730481838.15, 3.87
-1730481838.04, 3.67
-1730481837.95, 3.68
-1730481837.85, 3.51
-1730481837.74, 3.49
-1730481837.64, 3.54
-1730481837.54, 3.40
-1730481837.43, 3.71
-1730481837.34, 3.60
-1730481837.24, 3.81
-1730481837.14, 3.50
-1730481837.04, 3.62
-1730481836.93, 3.57
-1730481836.83, 3.80
-1730481836.73, 3.48
-1730481836.62, 3.39
-1730481836.52, 3.46
-1730481836.42, 3.39
-1730481836.32, 3.51
-1730481836.22, 3.38
-1730481836.12, 3.68
-1730481836.02, 3.58
-1730481835.92, 3.60
-1730481835.81, 3.65
-1730481835.72, 3.69
-1730481835.62, 3.64
-1730481835.51, 3.60
-1730481835.41, 3.61
-1730481835.30, 3.63
-1730481835.21, 3.62
-1730481835.11, 3.53
-1730481835.00, 3.50
-1730481834.90, 3.59
-1730481834.80, 3.50
-1730481834.69, 3.51
-1730481834.59, 3.32
-1730481834.49, 3.68
-1730481834.40, 3.18
-1730481834.30, 3.60
-1730481834.19, 3.63
-1730481834.09, 3.58
-1730481833.99, 3.67
-1730481833.89, 3.62
-1730481833.78, 3.54
-1730481833.68, 3.27
-1730481833.58, 3.53
-1730481833.47, 3.65
-1730481833.38, 3.54
-1730481833.28, 3.49
-1730481833.17, 3.50
-1730481833.08, 3.68
-1730481832.97, 3.51
-1730481832.87, 3.55
-1730481832.78, 3.50
-1730481832.67, 3.58
-1730481832.57, 3.56
-1730481832.47, 3.64
-1730481832.37, 3.69
-1730481832.27, 3.89
-1730481832.17, 3.87
-1730481832.07, 3.56
-1730481831.96, 3.29
-1730481831.87, 3.43
-1730481831.76, 3.50
-1730481831.66, 3.44
-1730481831.56, 3.68
-1730481831.46, 3.23
-1730481831.36, 3.24
-1730481831.26, 3.31
-1730481831.15, 3.55
-1730481831.05, 3.61
-1730481830.95, 3.54
-1730481830.85, 3.83
-1730481830.75, 3.34
-1730481830.65, 3.17
-1730481830.55, 3.85
-1730481830.44, 3.42
-1730481830.34, 3.44
-1730481830.24, 3.58
-1730481830.14, 3.47
-1730481830.04, 3.58
-1730481829.94, 3.85
-1730481829.84, 3.86
-1730481829.74, 3.40
-1730481829.63, 3.70
-1730481829.53, 3.48
-1730481829.43, 3.54
-1730481829.33, 3.65
-1730481829.23, 3.74
-1730481829.12, 3.83
-1730481829.03, 3.86
-1730481828.93, 3.81
-1730481828.82, 3.63
-1730481828.72, 3.56
-1730481828.62, 3.59
-1730481828.51, 3.50
-1730481828.41, 3.43
-1730481828.32, 3.40
-1730481828.21, 3.39
-1730481828.11, 3.42
-1730481828.01, 3.48
-1730481827.91, 3.58
-1730481827.81, 3.68
-1730481827.71, 3.78
-1730481827.61, 3.81
-1730481827.50, 3.82
-1730481827.40, 3.76
-1730481827.31, 3.71
-1730481827.20, 3.45
-1730481827.10, 3.44
-1730481826.99, 3.46
-1730481826.90, 3.45
-1730481826.80, 3.47
-1730481826.69, 3.47
-1730481826.59, 3.47
-1730481826.49, 3.48
-1730481826.39, 3.48
-1730481826.29, 3.48
-1730481826.18, 3.48
-1730481826.09, 3.48
-1730481825.98, 3.47
-1730481825.88, 3.47
-1730481825.79, 3.47
-1730481825.68, 3.46
-1730481825.58, 3.47
-1730481825.48, 3.49
-1730481825.37, 3.44
-1730481825.27, 3.51
-1730481825.17, 3.57
-1730481825.07, 3.61
-1730481824.98, 3.46
-1730481824.86, 3.40
-1730481824.77, 3.49
-1730481824.66, 3.46
-1730481824.57, 3.39
-1730481824.46, 3.49
-1730481824.36, 3.45
-1730481824.26, 3.55
-1730481824.16, 3.71
-1730481824.06, 3.53
-1730481823.96, 3.48
-1730481823.86, 3.60
-1730481823.75, 3.50
-1730481823.66, 3.61
-1730481823.55, 3.62
-1730481823.45, 3.69
-1730481823.35, 3.59
-1730481823.25, 3.59
-1730481823.15, 3.43
-1730481823.05, 3.48
-1730481822.95, 3.48
-1730481822.85, 3.54
-1730481822.74, 3.41
-1730481822.64, 3.20
-1730481822.54, 3.62
-1730481822.44, 3.47
-1730481822.34, 3.68
-1730481822.23, 3.58
-1730481822.13, 3.44
-1730481822.03, 3.54
-1730481821.93, 3.58
-1730481821.83, 3.55
-1730481821.73, 3.59
-1730481821.63, 3.46
-1730481821.52, 3.54
-1730481821.42, 3.52
-1730481821.32, 3.52
-1730481821.22, 3.42
-1730481821.12, 3.53
-1730481821.02, 3.47
-1730481820.92, 3.04
-1730481820.82, 3.21
-1730481820.71, 3.56
-1730481820.61, 4.08
-1730481820.51, 4.79
-1730481820.40, 5.00
-1730481820.30, 5.00
-1730481820.21, 5.00
-1730481820.11, 4.51
-1730481820.00, 3.85
-1730481819.91, 3.20
-1730481819.80, 2.71
-1730481819.70, 2.54
-1730481819.60, 2.51
-1730481819.50, 2.57
-1730481819.39, 2.88
-1730481819.30, 3.27
-1730481819.19, 3.75
-1730481819.09, 4.59
-1730481819.00, 5.00
-1730481818.89, 5.00
-1730481818.79, 5.00
-1730481818.69, 3.75
-1730481818.59, 4.04
-1730481818.48, 3.33
-1730481818.38, 2.76
-1730481818.28, 2.56
-1730481818.18, 2.51
-1730481818.08, 2.61
-1730481817.98, 2.80
-1730481817.88, 3.18
-1730481817.78, 3.61
-1730481817.67, 3.65
-1730481817.57, 3.77
-1730481817.47, 3.85
-1730481817.37, 3.86
-1730481817.27, 3.88
-1730481817.17, 3.84
-1730481817.07, 3.76
-1730481816.97, 3.67
-1730481816.86, 3.58
-1730481816.76, 3.51
-1730481816.66, 3.48
-1730481816.55, 3.44
-1730481816.46, 3.44
-1730481816.36, 3.48
-1730481816.25, 3.52
-1730481816.15, 3.53
-1730481816.06, 3.49
-1730481815.95, 3.49
-1730481815.84, 3.48
-1730481815.75, 3.48
-1730481815.65, 3.48
-1730481815.54, 3.46
-1730481815.44, 3.46
-1730481815.34, 3.47
-1730481815.24, 3.47
-1730481815.14, 3.46
-1730481815.04, 3.48
-1730481814.94, 3.47
-1730481814.83, 3.48
-1730481814.74, 3.48
-1730481814.63, 3.48
-1730481814.53, 3.48
-1730481814.42, 3.48
-1730481814.33, 3.48
-1730481814.22, 3.47
-1730481814.13, 3.47
-1730481814.03, 3.46
-1730481813.92, 3.46
-1730481813.82, 3.46
-1730481813.72, 3.46
-1730481813.61, 3.47
-1730481813.52, 3.47
-1730481813.42, 3.48
-1730481813.31, 3.48
-1730481813.21, 3.48
-1730481813.11, 3.48
-1730481813.01, 3.48
-1730481812.91, 3.47
-1730481812.80, 3.48
-1730481812.71, 3.47
-1730481812.60, 3.46
-1730481812.50, 3.46
-1730481812.40, 3.47
-1730481812.30, 3.46
-1730481812.19, 3.46
-1730481812.10, 3.47
-1730481811.99, 3.48
-1730481811.90, 3.47
-1730481811.79, 3.49
-1730481811.70, 3.48
-1730481811.59, 3.49
-1730481811.49, 3.48
-1730481811.39, 3.48
-1730481811.29, 3.47
-1730481811.19, 3.46
-1730481811.08, 3.46
-1730481810.98, 3.46
-1730481810.88, 3.46
-1730481810.78, 3.46
-1730481810.68, 3.46
-1730481810.58, 3.47
-1730481810.48, 3.47
-1730481810.37, 3.47
-1730481810.27, 3.48
-1730481810.17, 3.48
-1730481810.07, 3.48
-1730481809.97, 3.47
-1730481809.87, 3.46
-1730481809.76, 3.47
-1730481809.67, 3.47
-1730481809.56, 3.45
-1730481809.45, 3.45
-1730481809.35, 3.47
-1730481809.25, 3.47
-1730481809.12, 3.46
-1730481809.06, 3.46
-1730481808.96, 3.48
-1730481808.85, 3.48
-1730481808.75, 3.48
-1730481808.66, 3.49
-1730481808.55, 3.48
-1730481808.44, 3.47
-1730481808.35, 3.47
-1730481808.24, 3.45
-1730481808.00, 3.46
